# Format: McCode with text headers
# URL: http://www.mccode.org
# Creator: McStas 3.0-dev - Oct. 11, 2019
# Instrument: Test_Sources.instr
# Ncount: 1000000
# Trace: no
# Gravitation: no
# Seed: 43942
# Directory: Test_Sources/4
# Param: source=5
# Param: Lmin=1
# Param: Lmax=11
# Date: Sat Oct 12 09:05:17 2019 (1570863917)
# type: array_2d(40, 40)
# Source: Test_Sources (Test_Sources.instr)
# component: m2
# position: 0 0 1
# title:  Intensity Position Position Monitor (Square) per bin
# ratio: 100000/1e+06
# filename: m2_1570863916.x_y
# statistics: X0=0.000109163; dX=0.0288246; Y0=-3.23855e-05; dY=0.0288248;
# signal: Min=1.27153e+08; Max=1.78684e+08; Mean=1.51556e+08;
# values: 2.42489e+11 3.40482e+08 999978
# xvar: x 
# yvar: y 
# xlabel: x [m]
# ylabel: y [m]
# zvar: I
# zlabel: Signal per bin
# xylimits: -0.049999 0.0499995 -0.0499995 0.0499995
# variables: I I_err N
# Data [m2/m2_1570863916.x_y] I:
148589801.5 157622696.4 148744299.1 142634875.1 147312042.3 148038454.3 149143741.8 154504852 150670138.5 151762533.2 168054361 155789239.6 153126642.2 152324718 127473076.3 140316363.3 156171858.9 147250093.4 160768882.4 137000726.2 144821446.9 155358756.5 152338966.6 135133187.5 145060894.5 151152594.4 151288796.4 155741258.3 159956365.9 157464301.5 147788548.8 144537753.7 152627805.8 172004920.6 150444993.5 147128558.6 145361626.6 157611734.1 147174158.4 134347740.8 
147024344.7 149333801.7 166645729.8 138091083.2 152498154.6 136118722.6 146820178.2 147692929.1 127152753.3 142388707.2 141400898 135804256.9 149180758.2 138419887.7 147229557.3 152664167.1 139642982.6 146596370.6 161577690 149126152 162895118.6 150058844.8 157001294.9 162636648.3 140363549.8 136494572.8 159549424.6 144882042.3 149161203.4 159776745.5 151826853 147491824.7 173883358.6 148069001.2 162616979.1 157172814.5 169381871.7 146083644.3 139561382.5 145210534.6 
167360247.3 145404324.1 164312211.8 143813995.3 151347506.2 134343070.8 155903263.8 153709933.2 150984944.9 147344343 152914818.3 168334471.1 145384233.1 137568237.2 150328153.3 148567837.2 149678470.9 156138980.3 153056033.5 147767579 143902283.9 151789328 169746527 157648756 148773950.8 155369934.7 133200730.7 156506503 150859295.6 146912494.3 159732669.5 149183692.4 159658052.5 157739846.2 166404120.8 147785904.1 157103714.2 153896476.4 162389841.5 157566011.9 
144731149.6 156522861 157037886.8 159382835.2 139140746.5 155140340.3 151819350.7 147348986.5 145979340.8 151762014.4 164202610.9 148395439.2 153694752.7 154845660.4 134809739 147834038.9 144027834.2 142589330.8 142615592.1 140589114.2 146055680.2 160449565.2 155865634 158553610.9 152961756.6 153010961.7 158776534.8 155454421.1 144159986.8 157265592 141757861 148256518.8 142542822.7 160421727.1 148387824.6 145401615.7 138652542.5 147597693.2 150366651 158884952 
140746594.3 142068442.5 170579909.7 142395859.6 157347528.8 149697040 147294723.2 132127298.5 146382977.5 154108795.3 141955813.8 150871639.8 153808823.8 160922394 149009857.4 140214532.6 132935411 151637166.4 151737204.1 154763907.6 145138598.6 153210269.2 142598134.1 153595242.7 153546617.7 162445007.2 150350658.1 149074867.1 153346425.8 158256802.5 158191507.6 164990774.1 160547354.6 140427887.6 153739956 161973071 152564897.2 155250886 143704229.6 144617415.5 
162017022.3 146505316.8 138423010 148944591.2 151778675.4 160266772.4 143870307 152946427.3 146099425.2 148528319.3 153889105.2 163881154.6 156344137 159084253.2 147170426.4 150853366.5 149667938 148434828.9 143001512.4 147113282.3 164093991.8 141431186.4 153509499 160699763.3 146119940.9 144470807.9 151779769.2 145882613.8 160060048.3 148473381.4 158993716.3 157819448 161706822.8 170041409.6 143883796.6 160852140.1 154397103.4 153709115.4 151938904.4 152593716.8 
140062143.4 161239009.1 156246376.2 155233560.6 135818409.7 150636684.7 145065389.2 145829839.9 140941365.5 142528676.4 157836564.9 142570801.9 156816062.6 145232515.8 152548682.1 138222777.9 161468988.3 147901246.1 152509215.2 137008187.3 158264175.5 151344338 136660618.3 152133123 146280133.9 161572482.6 149395195.3 145250112.9 158920887.3 145231680.4 139316254.2 164670356 155535833.6 148502173.1 138755497.7 166024771.9 178624705 153912870 158687542.5 139418202.3 
152991090 151143140.2 147854661.5 161025431.5 160762280.5 143956678.7 144451083.9 151824280.6 147582009.7 157720560.5 158682343.1 152165467.5 148326610.7 164798238.3 148176194.5 157945485.8 170954742.3 143251327.5 146941789.3 157793560.1 158230232.5 149938966.8 145015163.2 160731781.3 161555972.6 145311281.1 153992587.4 157730890.9 149323856.9 168172553.8 145146764.6 137527564.5 158014478.9 147445096.3 154083462.3 165572626.4 150506998.4 165592852.5 142488746.7 163115754.6 
158630329.4 157447019.5 159673126.3 150628642.8 152917802.3 157069868.4 154125582.1 152731965 154015923.1 148777302.1 148728480.2 159590588.7 157093347.5 162592252.5 147549140.7 140176715.6 164037687.9 163053518.7 141130982.9 143808960.4 159405581.5 137403772.8 152969676.6 169400158.1 142157299.3 153703077.3 145199659.9 158423062 137118873.6 146770999.6 144038234.8 150674501.4 146753165.6 154955928.6 151468104.2 156922570.5 143450537.5 160168162.8 157256332 142478631.5 
150990792.6 146467088.8 151357683.8 155294360.7 154182161.5 153107043.4 150340466.3 168650926.7 151993503 149004492.3 151508365.1 152742242.9 157913877.3 151245527.4 149630971.4 138874768.7 138604866.6 175911574.5 163925560.6 131937841.5 166742164 146756216.7 149699403.1 165330517.6 134718888.1 155072212.1 156905496.9 158512484.8 144641590.4 141975355.4 143346318.4 151154474.4 148699483.7 160367398.2 150147778.8 157855972.6 148727580.4 150339727.6 141967710.1 146996676.5 
153799759.6 145779337.4 157971520.9 177440940.8 149209646.9 155447654.1 159815292 148849836 146996626.7 163117960.3 150859194.4 159700728.5 148765720.7 149434625.7 162272704 149718937.3 152537138.6 149803053.6 157436689.9 149470977.7 153562120.3 146965770.1 157217558.4 158708944 137270061.2 148567153.9 144438453.2 168534422.1 149661944.7 152646102.1 144397331.6 174487596.1 145747025.4 157280090.3 142511199.4 157410965.7 157057649.2 161287655.6 157804409.3 140447961.3 
154616216.1 141938439.6 152480901 142615476.4 156869946.9 161815826.8 169770417 157706858 139402625.8 152017564.1 144857469.2 147511819.1 160820911.5 150782284.9 161528123.1 145541657.7 150803333 145318977.9 158898562.3 154016006.5 155447621.2 146340802.2 167402578.6 152711387.5 168533802.4 162268914.7 161646888.1 168121129.1 160741876.7 151652425.2 157501951.1 158558329.3 145224487.4 135143393.8 151846181.4 143934669.7 131729469.1 155362787.3 155991779.2 145779419.9 
141435546.9 135256563.1 170349608.1 138762275.8 135449075.9 158513164.4 162256315.1 150976509.7 165924213.1 153663046.7 158931165.8 146679530.5 137466422.3 158884892.1 152868279.5 155026740 150549791.2 150888037.3 154453643.7 149316268.6 145227993.1 141948189.4 155352589.8 146963390.9 153551081.1 153318611.5 148919677.7 145602472 160686346.9 165261329.1 151756514 160135724.5 150756825.3 156520654.8 164413937.8 146681184.8 134912072.1 156567220.7 149620991.7 148370643 
157148317.1 157469367.1 142601790.2 152473293.3 139310740.6 139298053.9 157433303.6 149666881.2 142379411 149820110.5 154778196.5 151773427.7 158734371.2 153386638.5 154772694 139941528.2 151235975.5 154352523.8 149131435.7 160115638.5 153374765.7 149717952.9 155154564.9 154184759.7 158873032.2 161794062.6 161208373.9 153576005.1 132164709.2 162628656.2 148486258.7 169743996.9 149847377.8 146252399.6 138638798.5 144902163.5 165361291.2 158115906.2 153651193.3 158370434.7 
144570017 161983474 150744040.8 168126333.5 148751378.4 141393203.2 145567968.9 163771899.9 155902137.3 160777887 162884002.3 135519173.4 157919897.9 145877197.5 151993839 142908385.1 152879904.4 145674324.2 163798442.7 155292516.2 161007340.4 152852897.8 153495213.4 142875045 130791502.8 158978047.4 155045381.2 146644514 144530191.3 145149291.2 142384596.6 159296121.1 161100500.6 150864765.1 153605629.6 153059531.6 153488774.8 164306053.2 157777324.9 139267935.2 
140329845.7 157943866.4 155723744.4 160613254.8 146295544.5 150092019.3 144720067 148457590.2 140049371.1 164293482.9 156977047.6 155977589.1 154388823.2 152713976 152969112.4 138886325.3 138849700.3 153244564.6 155759701.4 164821822.2 155405337.3 152992610.9 178684183.9 148535320.1 136535409 164329729.2 152690793.7 146535937.1 155508870.7 146789401.7 150906862.6 141877865.8 169131671.6 149786447.5 156011841.4 136184182.5 132131421.1 151495029.2 154703162.3 155534560 
151477367.2 149648343.7 145964072.7 148652830.6 157134844.9 142473166.9 154661700.8 144109309.1 143607710.4 149296218.3 160833649.8 157072307.1 152273520.4 155004498.1 142384735.8 142059772.1 147509317.2 153925963.9 149131148.6 161184326.9 146844360.7 170370626.1 141093153.3 154837947.6 143982813.6 160714276.8 153224964.4 155619473.3 144298925.5 141928956.6 155175841.8 170388690.5 139432788.9 148255479.3 142743202.1 151033189.8 157305537.2 151140450.7 161621475.7 152809510.9 
155816199.2 148843753.3 147547384.9 150101949 160369016.6 171691083 146796544.5 151876604.6 157237497.3 151552833.4 144233068.5 156372337.4 166201816.1 149785476.1 147424741 154118260.9 147331261.1 144721231.9 137504989.4 145292913.1 165060066.7 154557781.7 160007831.7 147792849.6 144359129.4 150806623.9 144921208.1 157231075.2 154160550.4 177429263.9 152969025.1 163561297.2 149643842.8 156223415.7 143508637.6 164715756.9 163210187.8 146756304.4 160388064.6 153837056.6 
153596446.1 152228978.5 145901133 145157404.7 148507857.1 145991844.6 146380874 138908994.2 148071805.6 154311917.2 156942052.5 170989557.2 140288001.6 151019861.7 136017276.6 161371698 154912837.3 160115268.5 159409501.1 162882440.2 145305931.7 156554281.7 144681011.2 161095786 159892000.4 156529631.5 143351871.8 153684662.3 153412478.2 146519675.3 152686264.6 157806225 151074649.8 158554957.3 162632418.6 155504909.5 149399794.6 166235754.8 142801505.8 145016433.6 
144053612.5 153228515.7 146177332.1 157879910.8 155130414.3 157739876.2 147490192.5 148036866.2 148742512 159233937 164343058.1 158646965.4 150095044 145953674.4 154756915.5 158573704.7 165556207.5 153077690.8 144641401.4 135353654.4 160301725.8 150351350.5 156211708.4 153283820.1 164271277.3 150294960.7 151104868.1 151500093.9 129719240 136124331.5 150698345.2 152330245.3 150897931.6 152090174.7 152916804.8 166204293.2 150310464 142895850.9 149061544.4 139428141.4 
154084898.5 147425767.9 144667999.3 138795753.1 150706976.4 158628714.3 139712443.7 157407867.8 147471524.6 152527035.2 142932902.4 137242679.5 154134463.4 153859305.4 146196495.2 156392351.3 149388306.7 151079466.4 149232774.6 147855302.3 161436908.4 148563478.3 148430521.8 161509077.4 154398433.9 155068672.9 148242493.7 138088911.8 162304688.1 160177733.8 164877302.3 148962536.8 160278022 152671899.8 156016156 165926823 151743520.9 157496150.5 150884871.5 163324686.1 
134385411.2 138820433.2 149878160 151987465.1 135597743.3 151307617 146693361.9 155724940.3 144636835.1 153935303.4 158485096.4 159213607.2 142324284.5 151473349.3 147207420.9 145055287.2 158928702.7 156586924.7 149013468.5 153702116.2 154861474.9 165589751.7 150584175.9 161283079 156326652.2 148054829.5 137974508.6 157802776.9 167489577.9 142803653.2 155150706.2 139265175.5 144073006.7 145632881.1 141861504.3 155425538 161212211 145612366.5 148676392.3 160581482.2 
150908372.5 168524952.3 153985181.9 135394204 142696231.7 147518995.6 149409877.7 146705007.4 153416537.9 142727324.8 154046736.9 144020515.7 161461674.6 156300644.6 150361644.2 153617833.7 155190633.6 141935355.5 173416846.8 143535279.7 162358123.9 152768025.7 148895658.9 155758546.5 161146576.4 155339843.3 154660701.5 168261650.5 148133238.4 150885944 134331968.9 144195684.8 150285655.4 149222368.8 164242684.1 152162310.9 139523691.9 157738798.7 157567220 142444431.7 
143817158.7 139878178.9 161264578 149458512.7 146425651.9 136571495.9 158841081.5 145922116.1 147297330.4 162949964.6 154382874.2 136843101.7 139311759.9 148227298.2 156943114 159612554.9 148573904.4 164625885 140602302.8 145789336.9 150148204.7 152810668.8 158075422.8 146676259.5 148272691 139448632 142411524.5 142514195.1 148180165.7 143146734.8 158415027.4 156208226.4 144059047.1 160194535.7 155551861.3 156088977.4 143513190 145394208.1 154143693 171353024.1 
138820838.2 148821954.3 151260194.5 138242816.8 153910267.6 142101453.8 149826938.9 158011937.4 156207420.6 154500418.3 132579504.4 148598487.5 153897686.9 142070457.9 156594578.9 162634611 151979882.8 161463104.7 151232749.2 148634978.5 163446406.1 163703707.1 151330505 160798167.8 176790194.4 156609304 136087492.7 147877140.7 147824653.2 139352019.9 156584729.6 142683061.2 167099088.6 160563064.3 145018699 160456236 146651550 138745298.2 158997968.9 159464019.1 
152369885.6 149164597.8 157757611.2 147422362.9 147959396.4 148805732.6 149740364.5 144325887.2 157284352.6 148458012.9 156079935 151811711.4 150407492.7 161977927.9 155540770.7 152496151.5 143320040.5 146284474.4 146362925.5 153277798.2 144416803.3 152169754.4 162613084.1 152167441 153998058.4 165019270.9 161894153.7 144585227.8 147371657.3 142951524.5 167257709.9 156274466.7 140644482.4 140972314.4 147361786.9 134055765.4 157383014.9 172118078.3 153259893 156324713.2 
163123007.4 142844740.7 143253622.1 154986073.3 165549813.2 161682891.8 149315753.6 156557443.4 140834210.2 162335583.9 151649811.6 143824007.3 158677808.8 158562195.5 154930843.9 159848171.5 150863546.9 156867262.6 152544069.8 155658705.4 161943100.5 143290702.4 163650187.8 157974770.1 160980160.3 158669504.1 140772359.6 150966951.9 151231588.5 150836767 157342486.8 161593603.1 159766109.4 153494090.4 153503492.9 156089397.9 165422986.5 149207869 148489333.9 141788632.7 
152572395.2 153453584.9 154313177.3 141223881.2 148220776.9 152735004.8 146945746.1 150815690.2 142703477 148805362.3 147677731.1 166089699 139112732.6 163001961.9 157608377.8 152944237.2 164665552.8 162105570.7 157813670.8 168175505.6 147804965.5 139827726.3 146159957.8 147383305.9 150106013.5 158011089.8 159030988.1 133873727.4 134611123.3 144806031.3 145099388.8 147504343.2 161994452.2 145559184 153290960.2 147709502.8 136631482.7 144099307.1 157829959.8 143860594.9 
153107970.2 162341952 157707874.1 160629793.1 142893937.3 148462151.8 131292606.3 154956175.4 171424359.1 161396118.2 147866645.2 147041299.2 165869384.2 152966727.5 149160944.3 134178306.6 137000846.2 148124075.7 157424543.7 158728922.9 153754773.4 148897925.6 153072783.9 151282763.9 150929508.1 155671688.6 151526882.9 138135890.3 163638032.8 151375389.6 153398336.5 149383696.8 154043759 145581320.1 135864786.6 132544097.3 154864348.7 155162238.6 162332811 150955782.5 
150892751.3 159932835.1 155751854.3 167289849.4 145538980.4 163427848.4 154861461.3 143690823.9 165981074.9 144161205.9 155759637.5 150755258.3 129671529.3 151431333.8 148011354.2 154061895.2 148768702.8 159705680.7 142854284.3 153414218 157687028.3 161746767 156021860.8 163372930.8 137941914 151770646.2 153057118.8 157123934.2 143123741.9 151992696.4 154942504.7 147013742.1 148812187.3 151264574.3 160780410.9 157937551 147726019.2 153877006.8 145687390.5 147615574.2 
143660495.7 153546225.2 148266942.1 144580333.4 146922596.4 142066272.2 154214551.5 150291969.6 156580149.2 141866118.5 155736760.5 147243899.2 146143433.3 150777722.1 152210596 155677914 157142480.5 135339374.6 155226569.8 156747433.4 136256022.5 154542981.8 146877288.5 155596296.9 153907561.6 159467763.8 149639034.6 157572124.4 157612075 146690387.9 136500177.2 168913415.2 149439804.7 138585430.1 163877968.5 149311264.4 152757935.1 142482459 152065563.8 154045270.9 
142184206.1 151513601.3 146356848.1 134993633.9 156471283.2 139800748.7 142071221.1 150375541.3 146889907.9 152427755.7 168984192 143649696.2 144783110.2 149957159.3 140052408.9 143009007.9 156043667.7 159474675.8 157686043.6 159733774.7 161211176.1 156190286.8 146791388.9 148963003.9 151505896.9 154763113.9 136671517.9 154128481.4 143993847.6 156222873.7 155409136.5 137208602.7 161654664.8 147705852.2 151288969.3 153188032.5 157575755.6 140113397.7 144990061.5 151554107.9 
137436292.8 154468480.9 146635528.4 144472297.1 136302093.9 154653704.3 137210482.4 143473359.5 148957685.6 150400855.4 136772700.3 148652141.6 149059169.6 146342611.8 148622941.5 156693530.3 147178303.7 162706133.3 138994555.9 167935959.2 139843906.6 140426591.9 150260438.4 139990615.8 141386639.5 147882556.5 157084783.5 151343770.6 157295414 147595466.7 148681457.8 148332916.2 157940923.6 150299058.2 131860818.3 149540689 154449025 142263317.6 150225870.6 159362418.7 
130918872.6 163708614.1 155486936.1 151649454.7 154769305.4 159500288.4 152389295 147019827.1 142988286.3 162079936.2 150385841.4 155630902.4 160146323.7 157418164.6 149712352.6 159806565.2 157021105.3 145593240.8 150512525.8 141738525.7 165569169.3 150614560.1 156351812 157921426.5 159920087.8 157082597.3 152390531.2 151401911.3 158424015.8 155534576 145518721.2 133644632.6 155769725.4 155749962.5 154218195.5 145254445.6 143914904.9 150324688.1 172668061.1 160286740.2 
150723225.4 143130808.2 157903342.3 142585527.4 156437977.8 138386842.5 149972521.2 159831477.1 139378320.3 148677313.6 158821599.7 138042818.2 141486994.5 166107004.7 151434956.4 158893429.9 145823010 135886003.5 156931295.5 161066543.3 158302846.7 147371232.4 146255164.2 145245240.4 137997520.1 138356289 158796139.2 156093948.1 162307334 152618386.7 143711547.6 144824260.9 137594645.8 152790109.9 146754895.6 150015915.7 158298714.4 165551970.5 141058806.1 156161377.2 
147737843.9 152327549 151228839.5 150373592.8 147170489.3 149369938 139768566 158988274.2 155940420.8 147887733.7 151364682.1 149913195.8 146205449.8 157332665.1 154317677.5 169676188.9 158330745.2 158928676.7 161677219.8 154994833.7 136288834.6 143839450.4 152176549.6 151299785.7 148425364.8 158480072.1 138617770 145287043.3 135184296 139340122.9 141441169.6 133097018.7 151089067.2 157859653.4 175026763 138659578.7 143459340.5 142078120.3 164288708.9 143808737.5 
152445671.9 146926362.8 143903393.6 147124268.6 156461566 142083040.4 165416179.5 146643275.1 158650853.7 149378724.5 139016751.5 153491303.3 159395893.7 157245390.1 152334544.1 160859588.7 150054722.8 153549573.8 144317060.5 158676796.5 158838633.3 148303569.3 168002481.3 152069329.3 151664615.1 148795263.4 156663174.1 152859787 149524500.1 140173107.4 161892412.4 162738385.3 158140530.9 152684291.4 161136759.4 152621889.8 154881202.3 151092579.4 148631897 165750766.7 
162397288.8 152971732.9 132622095.6 146254656 156777628.7 153746459.6 155711892.7 150661019.3 144939021.1 151118254.4 142723275.1 154319111.1 156387369.7 163282522.9 145838288.1 146935242.3 151289504.1 147286224.8 158704704.1 155856659.6 152359790.9 145539956.7 146158729.2 159197947.7 149796340.3 156477390.4 145515514.8 137984774.8 164990133.7 161948303.8 154198500.5 144278857.4 145662603.4 147834818.5 146314176.3 147567745.2 143929628.3 143376878.4 145542421.1 149674444 
145872891.5 142221722.1 135210634.7 135579270 140105024.4 156993764.9 159834244.5 143233741.3 155644848.5 160640284.1 148955464.2 141491126.3 150466815.5 146964344.1 153501577.3 161538469.9 137553565.3 145223265.7 149237172.5 161654712 153684351.3 143274218.8 152683834.4 159922988.1 150817138.8 157445314.4 162846382.8 152229705.7 153318063.4 141784442.4 143079909.9 166219183 159894394.3 163286930.9 154304676.5 153315689.7 162687561.7 147941211.6 144667257.2 149651460.2 
158010813.2 142252591.8 149502757.8 138736724.3 163736973.4 146909647.8 154631597.2 134279012.6 150018228 157335357.8 153541273.2 159731261 153505663.4 144919837.2 142312199.1 153795844.7 162659668.2 148440644.2 144873040 156993867.4 144168640.9 162477127.3 151033535.1 139554966.1 153697945.9 156622164.2 160035601.6 149079060.2 143979205.5 148058872.6 155970520.2 159306883.7 160214053.8 157279293.5 161372646.7 137444916.8 146618611 145040144.1 143477126.8 165009984 
# Errors [m2/m2_1570863916.x_y] I_err:
8335992.206 8744733.631 8427127.383 8193822.094 8381134.717 8323346.962 8317068.537 8463731.347 8496846.642 8537581.436 9336021.784 8616684.892 8406293.015 8574474.888 7743522.857 8128756.616 8647024.649 8484060.777 8936597.632 7939122.11 8271925.43 8687648.497 8649257.008 7706012.342 8224002.429 8663676.062 8449219.547 8814919.666 8975864.055 8699692.805 8551623.444 8112220.991 8431285.617 9274143.592 8348465.603 8341838.05 8209281.1 8612766.389 8215290.517 7609796.709 
8290707.042 8470049.257 9032273.516 8172305.389 8417360.125 7922208.561 8148742.956 8249441.791 7534334.065 8218630.251 8054436.361 7985772.347 8662142.921 8226079.141 8174727.666 8716346.906 8103166.16 8331779.454 8805809.877 8526980.599 8935026.333 8432951.429 8603460.802 8915921.684 8059549.014 7967421.343 8759740.222 8362681.59 8334379.658 8889716.99 8818903.795 8412729.08 9385777.64 8289193.688 8890025.513 8705119.352 9229541.383 8151795.25 8030953.003 8429417.516 
8776527.59 8141927.976 9058575.59 8040375.871 8439667.494 7777889.893 8618883.071 8669339.825 8454711.905 8327678.742 8495316.033 9131854.84 8325762.144 7931855.054 8412674.144 8340666.496 8483246.573 8437591.458 8695599.826 8248595.502 8085299.054 8647046.994 9325381.269 8825956.337 8456314.588 8662467.645 7917657.663 8457670.412 8370744.946 8426124.122 8774806.511 8595109.7 8716491.654 8765530.857 9071804.778 8296392.21 8670016.165 8834477.727 8907710.257 8726424.956 
8441410.476 8496489.749 8525229.108 8798631.746 7844962.572 8543956.74 8569897.552 8386789.097 8463583.217 8453870.997 9154621.538 8412495.953 8533860.843 8840598.717 7939245.442 8213924.341 8188240.007 8216963.646 8048408.677 8005279.608 8300705.742 8709833.905 8487452.004 8777424.117 8304822.35 8612979.526 8812691.873 8346392.085 8373676.709 8534916.709 8114587.593 8360178.775 8310944.317 8914731.558 8428665.708 8112718.34 7944981.054 8546648.636 8487401.339 8662466.741 
8123675.399 8051040.01 8925517.711 8117176.086 8680211.226 8372676.941 8161094.047 7984408.146 8325241.302 8626262.384 8138590.731 8380960.956 8698193.208 8878098.839 8502780.002 7988691.341 7949757.073 8502186.814 8508497.045 8470575.603 8306350.237 8814030.134 8229591.888 8463777.174 8691135.128 8806277.393 8426031.902 8302777.427 8461933.131 8739879.319 8980516.659 9061488.221 8915320.949 7992902.53 8664036.25 8648370.704 8380838.398 8520950.197 8280608.457 8212469.601 
8937230.568 8237330.274 7963898.984 8556895.961 8614306.905 8863502.241 8123034.357 8607099.57 8369631.15 8297072.378 8525769.683 8782182.374 8839579.227 8642989.984 8307416.072 8535940.681 8461612.102 8546021.486 8176714.178 8587171.519 8886755.148 8236142.304 8608060.023 8874795.945 8302324.669 8229750.012 8531504.049 8595803.159 8820581.713 8403348.916 8794045.972 8800068.109 8739371.965 8964172.781 8145627.064 8694448.655 8558152.22 8761841.854 8504521.254 8567100.211 
8063066.673 8919850.038 8685559.122 8665700.032 8023998.707 8502383.598 8286061.76 8551329.159 8048249.61 8292657.417 8718060.485 8190731.976 8700210.778 8085128.485 8523307.626 8139010.419 8719169.294 8272955.199 8732825.624 7911085.032 8600983.133 8633811.335 8064286.106 8805394.061 8136859.926 8918070.324 8312824.577 8222935.041 8811173.254 8402284.526 7948485.107 9049049.983 8674736.705 8555987.96 7881827.413 9008272.204 9233862.627 8667041.486 8686383.304 7830052.092 
8604525.513 8412257.515 8438505.335 8800900.488 8749209.305 8046567.262 8117477.553 8470612.816 8396666.027 8849998.578 8878007.426 8587845.017 8309651.509 8913344.676 8305460.28 8594143.428 9146892.751 8254866.386 8403726.782 8693666.747 8728473.907 8568464.977 8121428.939 8905484.595 8864990.744 8148884.332 8530088.577 8778276.163 8503652.163 9206078.144 8182954.926 8012815.83 8819189.301 8459069.865 8574026.798 8953825.88 8540002.242 8935292.924 7917022.495 8987226.226 
8695565.022 8952034.885 8914653.37 8406362.232 8755874.643 8702156.798 8666193.842 8565685.27 8708514.167 8308417.431 8256694.214 8770014.94 8946219.698 9012099.43 8339816.2 7980519.177 8899467.993 8924406.405 7993765.237 8257044.139 8816665.25 8037595.988 8452009.155 9094642.451 8326926.593 8995512.56 8409821.201 8788560.681 7966987.35 8219573.818 8443739.953 8488980.791 8066122.991 8501442.458 8432997.892 8808059.349 8181132.894 8857059.378 8632833.307 8049345.099 
8445137.482 8704475.385 8439117.756 8705195.25 8501116.322 8524716.465 8501002.341 9109240.46 8317939.405 8380156.318 8496882.181 8778785.897 8966916.957 8497696.644 8466641.228 8011639.194 7989829.748 9381127.112 9008881.677 7832514.897 8994559.773 8252296.621 8272626.318 8718040.914 7789667.449 8484017.384 8857853.956 8872403.91 8214359.464 8245204.113 8137065.614 8437376.418 8437519.98 8825675.965 8505741.172 8848298.029 8428450.342 8453746.877 8114087.072 8318114.901 
8654851.22 8272296.095 8884385.739 9497382.54 8682470.92 8732481.526 8819800.804 8669726.575 8398073.13 8543712.976 8405748.163 8911480.455 8466250.446 8361558.551 8920442.73 8406734.705 8457422.651 8662533.892 8672683.371 8473259.127 8503592.493 8285604.266 8678217.624 8843498.826 7985757.645 8359275.39 8364201.358 8944258.836 8535419.767 8446886.876 8481786.27 9210298.05 8356423.502 8785147.785 8321071.387 8679745.243 8905817.8 8990481.115 8766355.5 8352707.152 
8765718.236 8035157.986 8496278.265 8177276.477 8604790.162 8898842.557 9231711.451 8677072.539 8160314.215 8685009.685 8403628.991 8291414.378 8688339.597 8498835.074 8928312.425 8466726.938 8504700.187 8156707.034 8537743.893 8594985.051 8708122.52 8527423.523 9158679.247 8421460.716 9084091.329 8956540.081 8850864.111 9258397.848 8926270.949 8425479.096 8762925.672 8993789.132 8120264.014 7887962.767 8572902.356 8226875.885 7956318.67 8611778.019 8797062.473 8383188.638 
8320234.559 7929067.906 9095633.264 7904658.291 7892976.119 8828830.715 9217781.148 8630679.872 9244341.933 8661675.927 8848567.821 8262003.238 7823530.752 8882063.817 8516105.16 9085995.979 8290501.335 8764515.566 8639355.946 8298272.235 8305820.64 8222686.693 8615031.654 8567662.207 8635108.767 8553125.845 8371350.801 8124750.616 8785493.658 9114644.317 8544047.441 8703505.589 8407578.041 8778120.295 8922734.183 8577160.751 7831249.494 8724216.211 8435166.154 8414635.436 
8769439.444 8743164.981 8313730.958 8626383.054 8244715.549 7919702.472 8661169.373 8733248.264 8267852.452 8447231.597 8806359.139 8427053.272 8886544.24 8392692.597 8675182.398 8171788.74 8437512.903 8486702.097 8571929.512 8813465.524 8542956.066 8397841.22 8782287.321 8420178.444 8733776.356 8895341.006 9128769.493 8834195.27 7549039.517 8828041.314 8415463.027 9244764.681 8378550.425 8328876.431 8127554.257 8411682.09 8945550.889 8624167.451 8591452.26 8971514.335 
8140970.82 8934865.375 8296493.001 8996948.861 8486262.8 8384103.267 8457984.63 8913323.842 8644393.535 8804553.555 8994153.144 7878046.68 8718330.397 8361848.962 8708678.661 8139650.888 8586604.055 8339457.517 8953109.419 8556567.421 8793295.311 8444770.741 8806671.319 8048172.262 7656085.891 8886935.576 8557361.352 8372416.201 8242417.225 8342017.844 8211549.74 8901825.517 8967398.213 8574371.029 8766238.789 8539875.452 8647899.985 8879842.519 8795987.417 7915503.325 
8045891.74 8551330.412 8705370.297 8957485.084 8432799.926 8410054.83 8118604.359 8609367.627 8296733.077 8914819.388 8724045.946 8497994.725 8705813.823 8474703.009 8626693.324 8142031.702 8173995.115 8509776.764 8613383.894 8950249.012 8766845.805 8505699.873 9260334.01 8356524.421 7949963.232 9089274.791 8677983.613 8148626.316 8628652.447 8266672.685 8445734.358 7990605.754 9266534.801 8410155.225 8606134.051 7957541.527 7614262.839 8629402.768 8532696.488 8500675.517 
8460252.501 8569726.443 8498507.508 8486069.052 8748777.277 8203755.375 8625954.938 8043860.544 8234942.189 8512235.923 8886642.174 8472407.415 8386302.387 8490531.892 8195951.243 8285592.661 8393566.255 8542884.221 8428827.779 8698025.14 8658964.598 9213947.482 8184078.205 8622345.545 8318487.946 8889233.501 8484058.573 8590854.785 8150249.809 8120786.589 8716861.592 9092889.336 7935100.048 8315676.299 8177231.544 8419976.277 8729952.401 8434747.977 9018212.629 8538702.882 
8670074.421 8122795.577 8334685.737 8486171.614 8802116.11 9413323.486 8421592.432 8691460.648 8718036.506 8806804.932 8058439.673 8551123.429 9137765.142 8394735.83 8326107.963 8859736.117 8179693.343 8252906.108 7779542.654 8261788.911 9110009.404 8551815.442 8892591.452 8404300.494 8328763.768 8623283.8 8256983.65 8992093.276 8495855.06 9434214.253 8584545.222 8976510.968 8610986.272 8774796.798 8263512.806 8766864.834 9001493.979 8382491.374 8964881.643 8511471.726 
8641927.444 8504874.012 8406187.781 8229380.766 8353340.558 8187377.193 8099222.777 8139743.006 8519497.261 8711240.773 8951466.435 9214896.724 8043181.164 8697777.811 7760862.486 8863082.844 8645514.656 8850772.597 8699148.623 8810869.021 8107642.011 8711535.766 8232251.168 8840823.975 8946049.961 8905562.73 8414449.367 8449552.074 8545307.488 8334117.143 8598059.236 8680586.821 8499263.088 8773045.196 9003778.408 8610263.105 8267326.984 9248426.378 8256280.016 8331573.016 
8334982.505 8443284.033 8380087.732 8600483.51 8707392.507 8630202.725 8555225.179 8487740.33 8302900.214 8419676.831 8935497.949 8858990.945 8407272.708 8402605.559 8902062.898 8736832.93 8870819.218 8602257.84 8357381.423 7964226.129 8585121.702 8343737.77 8757063.834 8698414.596 9178405.583 8468652.464 8529908.547 8643025.055 7676315.34 7759862.795 8646614.954 8268987.756 8624996.411 8498653.9 8556378.576 9155009.814 8426899.137 8253330.864 8519506.103 7978583.61 
8519271.802 8350000.52 8448819.794 8230535.478 8366809.648 8589548.031 7999574.692 8473639.728 8397825.364 8575787.638 8102511.031 7888731.935 8656464.025 8574208.496 8122443.189 8754892.336 8467551.414 8344632.161 8288291.635 8236336.627 8922068.123 8098666.743 8440230.551 8860611.213 8654303.393 8709129.57 8423526.72 8074366.714 8937062.6 8805867.941 9162667.602 8242036.117 8705638.954 8562421.767 8666197.252 8980185.693 8570210.681 8829479.55 8504376.098 8867235.069 
7608298.498 8155344.69 8154526.648 8639489.508 7821986.677 8651101.661 8209871.068 8583003.068 8321131.819 8576736.256 8703350.831 8710152.168 8023865.066 8297891.072 8589118.075 8423163.928 8747821.46 8816794.203 8528834.098 8645071.801 8768033.943 8835593.217 8576506.246 8899544.058 8690446.517 8438925.005 7933838.824 8793114.377 9064095.257 8056105.727 8705640.322 8094404.942 8232891.138 8438802.739 8036357.76 8717675.659 8658678.615 8438829.281 8530267.167 8794161.744 
8457095.417 9019754.505 8449180.509 7895066.25 7936966.632 8550045.395 8482623.614 8443509.066 8651381.176 8176353.469 8462195.885 8180598.834 8957497.136 8660636.434 8510643.548 8756107.761 8660997.444 8154735.033 9256580.698 8197424.853 9073326.599 8670200.638 8397614.261 8676373.73 8875144.663 8745027.566 8766812.011 9019484.37 8395209.613 8519786.951 7938566.096 8301296.759 8648125.062 8471762.173 8885468.515 8628723.121 7822190.059 8740987.021 8602968.3 8165838.88 
8274867.535 8149226.285 9124233.14 8468707.99 8334993.165 8095129.974 8711852.954 8402408.151 8286298.203 8848610.961 8703271.319 7796909.629 8222836.786 8580342.654 8656853.018 8899597.975 8183668.76 9133857.456 8187040.555 8339486.439 8649484.871 8477549.865 8775804.736 8335832.769 8540581.23 8244341.392 7958088.861 7896433.061 8353823.554 8255731.351 8672343.014 8672076.982 8007925.798 8614246.886 8756967.224 8778861.485 8248610.158 8265198.155 8827990.996 9070498.012 
7884840.186 8477379.295 8404069.162 7792475.055 8657078.431 8103918.411 8356761.686 8609822.302 8612860.675 8630169.143 7523539.529 8279146.807 8325863.475 8165433.286 8677923.384 9091839.616 8685987.569 8975793.578 8624127.968 8468762.514 9041115.92 8949497.386 8614749.849 8942271.092 9583216.467 8598499.382 7919125.359 8419993.212 8496246.949 8013057.281 8739554.094 8273940.287 8914427.494 8869236.776 8007084.061 8999334.324 8611224.178 8107059.309 8744357.723 8936497.573 
8834625.636 8306380.703 8982476.403 8293533.142 8453887.027 8426218.964 8461216.288 8244406.976 8875369.641 8368443.767 8569139.706 8397526.241 8681688.613 8823907.461 8746112.545 8476007.992 8269175.842 8495837.018 8334236.882 8654977.192 8146878.159 8389014.829 9032818.32 8719867.048 8508759.829 9037207.696 8809137.513 8151515.048 8493874.552 8078343.693 9096873.511 8430102.975 8043113.455 7951708.987 8288685.848 7766715.541 8673684.44 9263565.948 8262553.7 8539727.025 
8970496.446 8216942.678 8417975.418 8421178.88 8970321.9 8817636.019 8527408.489 8713293.51 8043821.81 8800525.662 8664186.51 8184152.533 8652264.042 8814500.432 8287297.623 8911348.884 8519478.141 8679448.148 8344388.892 8842396.027 8966802.653 8252077.105 8808481.729 9106859.712 8761563.159 8709153.036 8059882.069 8178001.188 8785219.092 8422450.773 8826638.112 8932547.622 8712848.937 8545883.672 8384581.473 8675117.622 9180225.803 8476195.644 8590492.147 8071361.208 
8385364.346 8640478.889 8657977.67 7973076.239 8272041.152 8845654.407 8401035.676 8402332.474 8076263.839 8300646.747 8553274.505 9021931.788 7893668.037 8890300.99 8963072.692 8496903.674 8632101.088 8878081.783 8751307.291 9158620.453 8264099.325 8144074.287 8254718.5 8605845.464 8452506.036 8946565.464 8820389.533 7818196.513 7928393.998 7977794.142 8315995.542 8449043.197 9105472.862 8263373.131 8546832.428 8250126.991 8036515.92 8378611.872 8779207.958 7871593.946 
8530582.312 8692952.222 8768788.318 8745325.126 7977544.762 8339709.119 7880041.475 8466906.614 9387610.253 8813953.867 8564472.224 8374822.777 8869738.14 8450561.705 8540901.039 7850969.524 8013397.544 8502029.559 8653871.666 8943919.13 8687527.651 8362136.66 8502625.509 8386931.84 8568278.056 8573376.433 8620790.443 7982103.991 8892017.742 8488564.011 8631715.667 8643715.476 8808577.583 8253066.461 8073260.855 7991746.086 8695384.684 8657699.584 8692956.282 8438106.855 
8249017.334 8667901.634 8670758.319 9242110.372 8223913.007 9035938.03 8468735.497 8002145.355 9208179.277 8241452.158 8714265.032 8265777.478 7371069.24 8544104.736 8327666.409 8424172.377 8406004.482 8756384.276 8204837.527 8637488.588 8461009.053 9022264.865 8799328.866 8949783.467 8287607.028 8431610.775 8528547.577 8842060.316 8169637.629 8442817.657 8669361.929 8276156.29 8397788.294 8575779.977 8945553.743 8786446.206 8455080.173 8509264.761 8258737.162 8165551.922 
7985519.307 8580004.89 8324063.081 8289524.512 8080769.398 8193079.978 8727637.006 8377033.988 8605472.727 8102231.622 8565109.053 8374883.186 8308038.63 8644584.842 8476629.386 8727672.346 8941502.559 7770541.528 8932051.259 8680822.172 7972103.322 8637495.849 8199298.307 8659550.446 8588299.603 8944088.643 8455085.928 8765927.558 8739031.648 8301684.614 7840327.85 9073519.121 8538142.85 7947399.791 9007044.691 8587982.962 8285971.543 8460417.181 8503196.144 8567637.033 
7967976.157 8577495.566 8416761.389 7853119.017 8487698.13 8116414.383 8332356.573 8263702.25 8459059.381 8380119.541 9120283.744 8137268.942 8285200.181 8405676.933 7958140.06 8106795.93 8496406.683 8602192.214 8737832.383 8807905.248 9010689.193 8611367.731 8375054.157 8571194.205 8630786.753 8669063.105 7804068.898 8885691.781 8212660.814 8443052.988 8672631.406 7975604.68 8934346.214 8363440.472 8747801.648 8673407.626 8649163.627 8061263.787 8215578.194 8620104.218 
8009794.607 8500060.36 8256393.186 8081438.214 8015954.496 8595616.82 7984627.299 8141032.498 8443394.277 8659041.527 7834422.422 8361990.345 8571248.862 8260191.656 8411585.236 8550734.665 8519755.427 8799226.901 8030153.929 8821491.447 8131911.028 8040391.6 8359050.472 8080235.529 8106282.079 8341390.925 8732727.619 8468886.186 8731932.736 8342501.637 8324271.646 8231609.581 8781724.88 8549758.977 7630513.062 8636049.738 8489513.264 7968243.108 8519813.331 8852582.71 
7670124.415 8828727.807 8600327.633 8499443.72 8649651.467 8577716.401 8520444.263 8405288.95 8234212.838 8983656.954 8458548.608 8728341.247 8576646.966 8839659.081 8448357.156 8736921.634 8675790.714 8095015.511 8447637.407 8262442.537 9210534.88 8379764.616 8833207.843 8714237.899 8818845.063 8741674.868 8491905.801 8788281.362 8644572.8 8473811.774 8310502.043 7854514.355 8742220.251 8587534.794 8678129.958 8287302.845 8142784.748 8704606.998 9175199.135 8695311.076 
8356266.686 8314155.88 8767729.548 7984762.547 8765134.659 8052865.323 8305941.191 8722817.11 8107879.724 8263542.689 8749686.971 8231621.922 8270875.531 8954014.99 8424628.026 8893444.443 8372450.157 8093828.987 8609175.84 8992744.645 8620941.352 8402506.353 8261988.566 8454774.369 7991502.645 7868504.468 8867304.517 8710825.362 8748890.207 8702367.305 8070376.654 8071419.186 8047913.985 8503347.362 8283107.231 8560199.271 8882288.548 9005986.695 8033602.103 8477312.613 
8409310.252 8661552.183 8629485.867 8467980.241 8336592.985 8668329.205 8080540.971 8929404.607 8543342.012 8235595.008 8496175.072 8223092.081 8504015.12 8835219.372 8496273.331 8959279.856 8989117.341 8895893.619 8852126.672 8674605.879 7843839.63 8119342.676 8425968.099 8368013.024 8471645.47 8926446.17 7923944.957 8368590.48 7788554.365 8134182.489 8181552.232 7787535.919 8679826.615 8697698.232 9255565.423 8068752.829 8197755.032 8193995.829 8975121.069 8390466.231 
8421648.983 8278836.53 8297488.271 8293570.249 8664958.84 8284848.132 9132484.294 8407298.226 8694449.824 8353886.085 7993831.653 8717936.865 8777700.84 8670114.892 8516399.426 8787462.933 8500941.516 8651785.836 8226536.911 8799038.057 8881497.566 8217024.518 9101807.267 8540771.017 8687785.852 8554662.536 8874034.969 8548033.415 8767875.094 7843071.821 8963692.78 8889960.357 8603286.963 8759333.658 8979197.198 8568990.377 8614002.949 8624583.005 8398425.173 9054034.675 
8695991.149 8715084.815 7906896.703 8278878.792 8831238.947 8458306.648 8556481.673 8612343.649 8139293.645 8480723.371 8338189.149 8623148.783 8827101.424 9227750.017 8277544.573 8498695.759 8520754.842 8591413.721 8818207.1 8652761.572 8360500.912 8167868.729 8182515.683 8733770.314 8503440.144 8671722.92 8157903.851 8099371.058 9047570.79 8678282.37 8725193.636 8461246.715 8389775.359 8203016.773 8513129.715 8202968.014 8030876.619 8309931.365 8401035.556 8271899.761 
8298742.934 8108928.054 7925741.416 8035802.061 7860054.639 8723564.901 8864743.386 8270220.051 8475663.058 8767764.115 8446141.558 8105297.373 8514655.243 8276463.859 8529216.799 8649806.329 7814899.208 8257681.134 8667454.903 8634000.81 8702273.695 8081505.552 8465933.076 8679840.293 8429786.647 8586763.75 8891297.36 8455005.114 8607232.915 8300321.396 8315482.203 8986273.717 8902960.211 9125562.907 8657950.353 8592778.614 9075550.532 8213464.93 8278840.197 8672525.365 
8790281.138 8154008.797 8326035.201 7993134.587 8915948.69 8751505.927 9028771.982 7891965.105 8287389.487 8754744.572 8610977.184 8856209.701 8699493.702 7980852.821 8308833.707 8499367.978 8951525.522 8357121.813 8124801.194 8796727.225 8024552.882 8965030.146 8525286.715 8049481.658 8604826.171 8729951.779 8679834.715 8330725.431 8248609.099 8433304.492 8628759.989 8635196.421 8679260.034 8886342.247 9004130.679 7867245.899 8227639.65 8121580.091 8066698.035 9093439.293 
# Events [m2/m2_1570863916.x_y] N:
631 636 627 627 628 648 653 637 649 606 650 646 638 630 548 584 614 609 642 606 610 639 613 587 615 601 607 622 611 642 596 638 656 657 605 603 608 646 629 616 
627 621 671 587 635 586 627 644 572 585 602 583 600 602 641 604 585 616 628 624 646 649 640 652 620 610 658 618 628 640 596 648 669 609 667 603 678 613 611 619 
661 632 646 643 602 589 645 646 634 633 645 661 604 609 620 641 658 654 618 624 629 608 644 627 609 641 592 687 622 638 629 607 627 609 646 613 648 640 677 649 
613 650 666 648 608 610 604 621 614 610 627 644 636 636 579 628 588 560 602 624 634 670 663 636 635 618 635 648 579 650 613 657 608 639 617 638 591 586 634 649 
594 641 709 625 646 618 638 587 612 608 608 652 644 657 620 624 552 632 638 642 602 593 635 624 629 645 633 629 656 645 641 650 646 616 649 650 655 641 599 597 
661 619 603 617 619 641 603 627 614 638 654 662 636 672 625 620 602 607 578 605 671 598 623 636 628 605 632 585 636 608 636 635 664 695 637 654 629 594 647 635 
601 631 625 620 587 633 594 598 588 596 618 631 604 615 625 578 668 617 579 633 630 649 576 615 592 668 642 623 632 625 611 671 621 593 620 655 694 641 657 650 
618 633 611 650 674 630 632 631 625 637 642 633 620 655 606 649 673 610 590 639 630 629 635 644 647 595 611 633 632 659 633 590 642 607 625 666 606 657 639 630 
661 606 628 659 587 642 660 631 616 610 628 628 612 639 601 612 638 637 605 597 630 575 655 654 575 584 586 619 586 625 608 620 622 632 627 615 614 657 620 612 
618 583 624 646 642 633 619 624 690 595 627 617 615 625 599 607 609 666 638 559 641 606 630 668 604 625 621 628 618 591 592 629 613 648 630 634 611 603 607 633 
639 624 607 693 614 637 624 588 614 693 638 617 609 619 649 635 628 574 659 596 637 605 639 644 573 632 601 676 615 623 599 679 604 639 606 601 615 587 654 572 
618 600 656 624 626 614 647 637 572 632 605 614 652 622 635 608 627 613 655 608 638 599 646 664 661 658 684 657 663 603 621 616 633 576 643 618 556 632 645 612 
576 586 687 605 594 606 634 590 621 611 669 598 600 598 623 620 657 594 615 616 612 590 656 599 635 644 606 647 679 652 596 628 622 624 631 574 594 645 629 604 
634 631 599 630 573 607 660 578 583 620 636 614 619 650 617 615 630 632 601 625 610 609 620 632 642 631 666 617 609 649 621 627 626 618 614 579 662 644 641 635 
635 645 638 690 606 575 600 670 637 636 657 560 635 608 628 616 626 579 637 653 660 638 607 626 571 623 635 602 621 616 605 618 627 615 601 628 610 651 636 614 
578 640 606 627 609 617 642 595 559 660 646 640 641 614 617 585 582 651 638 625 603 628 683 619 567 636 613 636 627 631 615 630 658 617 656 614 605 612 631 683 
610 612 582 626 619 606 628 619 576 622 645 662 632 657 595 600 615 655 598 658 582 680 572 639 598 650 653 620 604 621 635 669 594 622 582 621 593 612 618 629 
654 632 593 597 636 654 616 583 630 592 621 670 639 621 662 590 623 636 609 587 648 660 637 618 575 614 615 599 599 694 634 672 604 619 616 684 629 598 621 638 
662 631 618 604 615 648 610 599 612 627 614 672 600 628 609 651 636 654 645 635 633 636 623 670 644 617 585 644 655 625 638 638 608 630 664 622 650 638 620 611 
590 610 627 634 613 650 566 594 637 645 658 636 645 620 642 626 681 637 603 560 681 653 638 611 621 623 618 642 567 640 599 638 628 624 648 677 644 599 620 624 
635 630 602 586 649 626 595 654 587 615 616 594 626 630 623 612 617 629 644 611 640 613 622 646 627 618 629 614 642 639 668 662 641 643 654 685 610 629 617 620 
600 602 654 628 593 582 594 631 599 619 651 637 654 634 607 582 633 619 620 638 606 673 612 645 652 594 607 635 664 586 612 589 595 581 629 614 673 596 630 640 
626 671 648 575 626 608 578 588 617 609 651 638 627 628 608 615 634 602 671 618 638 614 636 639 652 607 626 656 607 629 596 598 588 593 653 588 614 652 650 616 
612 593 644 592 643 580 666 589 612 642 630 588 576 601 655 632 639 654 557 635 595 636 616 575 612 598 635 634 621 606 647 630 638 671 629 616 609 638 605 671 
609 628 608 620 633 620 624 675 657 627 585 603 650 598 643 621 634 648 604 600 640 658 595 643 662 628 572 624 614 614 642 597 677 629 625 659 578 590 642 630 
604 619 643 620 625 605 612 614 636 626 630 639 600 650 619 642 585 582 616 641 635 642 652 609 631 661 655 639 608 625 679 642 604 600 621 601 657 661 641 632 
633 595 588 656 657 662 607 625 615 677 595 601 633 655 651 616 634 646 648 620 639 606 662 628 670 662 619 657 577 636 654 673 630 650 648 655 646 622 591 603 
647 625 622 595 620 614 630 621 605 620 609 679 634 647 624 640 717 664 640 665 641 604 615 599 639 635 646 605 579 624 641 593 620 622 626 610 589 615 641 642 
605 660 633 615 621 617 588 657 640 654 607 613 662 636 623 581 568 618 642 630 606 614 635 635 606 658 620 593 644 637 645 631 623 606 571 581 623 640 641 622 
650 653 631 643 621 647 644 588 646 596 601 657 604 612 629 642 599 660 615 652 626 663 623 650 581 641 655 619 643 613 628 619 605 646 629 631 625 634 630 638 
635 632 620 608 643 614 596 629 654 609 635 617 618 605 640 627 592 596 623 644 595 630 630 640 622 633 608 627 632 624 605 665 612 578 648 611 651 571 624 630 
625 618 639 564 659 623 618 645 617 652 686 596 617 609 591 615 654 680 637 641 642 646 628 625 617 628 600 615 629 663 637 589 648 631 589 611 646 589 620 606 
605 628 613 623 584 642 597 641 639 627 610 638 603 600 602 664 613 654 611 686 572 606 647 610 580 617 660 632 624 596 625 658 626 628 595 601 621 633 597 629 
571 664 620 602 648 639 612 599 619 649 587 622 683 633 622 640 637 632 624 616 622 659 666 625 626 618 618 604 644 622 630 591 649 657 625 615 620 616 669 661 
643 590 636 618 629 594 627 672 607 632 648 582 593 671 610 623 583 584 616 641 654 597 595 593 597 624 618 618 665 637 620 629 605 628 631 604 648 649 619 652 
602 630 608 635 635 620 578 640 644 644 612 666 609 644 645 689 632 625 602 629 596 610 643 635 605 627 607 602 638 581 607 598 622 626 688 582 597 582 653 621 
636 631 605 621 639 581 645 609 654 631 600 622 636 633 633 617 626 651 593 618 628 634 686 639 640 613 592 630 593 637 644 653 678 621 638 635 643 634 626 652 
656 603 576 596 610 647 634 602 640 628 569 647 591 614 622 607 625 593 670 620 647 604 650 651 614 631 650 596 626 666 594 582 618 647 593 630 631 597 594 613 
607 623 625 581 611 646 649 604 638 661 619 612 640 629 637 653 623 624 587 673 618 619 619 631 625 656 641 655 612 586 595 669 639 659 625 628 649 622 590 594 
636 624 634 587 660 573 609 583 646 639 639 645 605 629 585 626 650 606 644 648 633 647 627 579 636 642 643 624 589 611 612 656 649 635 621 613 608 616 604 642 
