# Format: McCode with text headers
# URL: http://www.mccode.org
# Creator: McStas 3.0-dev - Oct. 11, 2019
# Instrument: Test_Sources.instr
# Ncount: 1000000
# Trace: no
# Gravitation: no
# Seed: 43942
# Directory: Test_Sources/4
# Param: source=5
# Param: Lmin=1
# Param: Lmax=11
# Date: Sat Oct 12 09:05:17 2019 (1570863917)
# type: array_2d(40, 40)
# Source: Test_Sources (Test_Sources.instr)
# component: m3
# position: 0 0 1
# title:  Intensity Divergence Divergence Monitor (Square) per bin
# ratio: 100000/1e+06
# filename: m3_1570863916.hd_vd
# statistics: X0=0.0065473; dX=1.66017; Y0=-0.00207936; dY=1.66008;
# signal: Min=3.65359e+06; Max=2.11657e+08; Mean=1.51556e+08;
# values: 2.42489e+11 3.40484e+08 999980
# xvar: Ho
# yvar: Ve
# xlabel: Hor. Divergence [deg]
# ylabel: Vert. Divergence [deg]
# zvar: I
# zlabel: Signal per bin
# xylimits: -3.14472 3.1413 -3.14233 3.1411
# variables: I I_err N
# Data [m3/m3_1570863916.hd_vd] I:
4533863.481 10295753.89 19754434.54 22958868.32 27501721.6 31837219.78 25221900.33 24857296.93 33233476.05 26199179.01 33070848.16 30855666.11 25249411.84 30676860.29 26727813.68 33695914.71 23879841.35 25290651.2 24082261.29 27921137.42 25016861.93 20628462.5 25794252.65 29025974.21 25625834.15 27920131.31 22721609.92 29321076.43 33725132.6 21313847.66 31925640.74 30447807.36 31757304.47 23754983.58 21219615.66 23034636.54 27090399.01 17115250.95 12133316.08 3809737.894 
10463814.44 34811343.68 47791644.43 71956240.07 76319447.53 79989670.42 63830015.45 72895145.6 75577306.68 72910687.11 84964114.59 67223368.3 77977852.28 70344690.77 66633081.43 76913076.39 74190208.8 76388299.57 75094492.52 74963978.84 80778878.47 78887946.34 85438411.78 70346507.2 80595937.77 74604311.82 83322130.73 72626232.51 80170870.8 73759925.26 86737798.33 84637054.2 81238612.2 81315345.84 80849826.38 67054393.53 80072891.41 53648555.43 30732519.68 8769965.101 
17521570.22 57359418.37 86463549.1 131409271.6 130245435.7 126089219.3 123163887.2 115348287.8 127970872.6 122484250.3 119698486 126457438.9 117429542.4 119812518.2 121529917.7 125570491.3 125871861.6 124617406.1 128201638.1 126756539.2 132109400.1 136365958.6 139173265.1 132599249.7 124225228.6 134525915 128161411.1 128931999 137033049.8 129964438.3 147110379.5 129874639.4 139964119.5 128862982.9 131358015.9 106379695.5 123047805.8 83534237.35 49611937.07 18071130.39 
30997401.39 71481333.17 118749542.1 155759594.5 158693746.8 172305123.8 160461266.4 174639892.4 171882519.6 169669644.3 172928481.1 175401137.1 186244694.7 164721440.6 173792096.9 165304558.4 166241624.4 168844149.3 159752392.7 148892589.8 184658667.4 175123897.4 172868463.3 180177902.1 183391144 170446208.1 177588227.2 168426751.7 158605815.3 161342909 168727671.3 177120359.9 187645077.3 176350921.6 173141220.4 181477377.3 167600063 106147828.9 79203079.56 27183730.57 
38386405.27 70658027.98 131594417.2 167147766.2 197496408.3 178691218 174857765.4 172576099.3 171629831.8 167735252.2 184608430.2 176482137.9 178169651.5 183972775.6 178654586.9 169825595.8 169342242 179372478.7 185246712.1 191775723.2 168448894.6 179604016.6 173028706.7 183067873.9 186206588.8 172133269.6 170141496.6 190652916.4 183399750.5 178962537 202722909.3 177472138.8 203120626.1 184340640.6 179554805.1 195311539.2 175178795.7 130716593.5 73178379.5 26910598.46 
17556828.33 74455574.55 126204896.7 178101062.3 163067056.8 198211547.2 189901844.6 203333181.5 195237071.8 180378696.6 191028421.9 196788202.9 188449182.3 184041051.8 178482654.8 170404449.5 178873520 177535280.2 183217191.2 173549865.3 180267539.6 192389158 176507893.2 182935467.8 178975461.7 178030944.9 184700056.6 193646825.9 194979913.2 200418801.1 177524262.9 189133922 177700733.6 167619510.8 179177059.5 186970773.2 167811307.8 129593829.7 76319695.12 25786412.69 
21629002.15 77593240.36 148224396.1 174626523.9 187789617.6 178295486.9 169397043.8 176838613.6 178416488.6 164020286.8 197190185.4 182014919.4 185488343.9 185404034.8 184796121.8 173037977.1 181902648.6 188661575.9 165001151.6 189441724.4 172628183.3 178684060.7 172669609.1 192153167.8 204065882.5 166251551.4 175692921.2 174016873.4 188089037 176545938.3 191569723 195327692 185033673 185715292.9 183080566.7 190347131.4 182764678.2 126695612.8 86234516.11 28126428.94 
22422329.99 69718840.06 122721762.3 183977337.7 187256679.3 178292043.4 166318589.6 200151044.2 178425733.8 181705351 174063239.9 190466514.3 179734919.9 200878735.1 183558484.4 178092733.1 196990103.8 186068754.7 193305606.4 199859621.5 170441645.9 169508697.8 182449244.8 174547070.6 183899874.5 192706164.5 175838635.2 186053902.7 188068809.7 176659928.4 180517130 192308460.6 180809601.8 179675391.6 201891247.6 177418320.5 162720386.1 139000496 72315840.46 31489057.9 
22614189.98 74557634.59 122988809.6 183628497.4 177605902.8 180233679.4 189963902.2 180083699.8 161173531.4 175365293.2 171530522.9 193192858.4 180442502.5 182343798.4 175780091.3 174675294.9 182614318.7 174359410 176891822.8 188722300.2 164726205 192201705.9 178961310.8 192370552 174518931.4 170873317.8 163390059.7 195911925.3 179499214.1 169043564.5 186024838.1 171380758.9 189285075.3 194842929 198764932.9 174821575.4 169616059.2 135186202 80886457.45 31641352.57 
27517705.25 76341410.28 127218823.1 169647053.2 194110748.8 177250669 203163640.1 178121634 182254211.6 186896464.4 178343034.4 201288742 185208160.8 174951245.5 178351373.4 196353374.8 184387151.6 192917758.9 178853476.5 167787878.8 173495019.5 178850462.2 195764861.7 176611145.2 184198811.3 203212526.6 179118522.6 188497658 163586469.8 192431057.2 178465001.8 197037731.1 174716563.7 188214220 180500913.7 198599696.3 165312137 128254482.5 74055966.23 22735013.16 
26288369.18 90973537.66 120062293.9 162795550 188954236 185976114.3 190803092.5 184430518.3 203901568.2 180739296 209043938.3 185186479.9 185821935.2 179334382.3 169779393.3 200772529.6 175500914.2 191856449.8 169072403 195433758.2 201287249.9 197523027.6 178361479.3 173365340.5 199074440.5 186703368.2 176709005.9 182670392.2 172247909.3 190378958.9 187137715.1 178189392.9 199084687.1 168068863.6 181990896 174992253.2 177128832.9 117509273.7 76143542.42 25695428 
29896194.67 83440520.32 107083745.6 176802973 174171864.4 193455529.6 199907710.3 181458692.5 189668128.6 180460534.6 182996180.2 189959329.7 192008488.1 179630714.9 182540366.3 182638372.1 182852998.4 175392753.5 181038444.1 178127710.4 184906633 190093213.4 176331580.7 188157853.8 198860697.2 181914720.2 172625969.2 187585170.3 203919939.5 182456372.2 176389296 188143565.7 166276796.4 179506455.4 178310580.1 183868392.7 168267235.2 130638076.9 91329662.6 18802421.42 
27634623.36 85629667.25 116832773.7 163488354.9 185048394.6 177695463.2 184477791.6 176063669.6 193019866 168726541.2 179316131.6 177251693.8 200667073.9 180522878.5 189476402.7 169017776.3 186558777.8 186123846.9 181130011.1 185367879.9 181768116.3 190833397.8 193951101.3 174314950 185940142.7 167795169.8 200792761 184052251 177094688.9 173425746.3 184141659.9 194955076.9 180397193.4 171106410.5 183197812.5 186922156.8 173723050.7 123808772.8 82409832.92 28332070.39 
24350264.42 72593419.33 128153541.9 179041878.6 175652359.3 182449975.6 181235143.4 172869998 201631205 190126941.8 186062922.1 178739062.7 195934874.5 177112143.1 175637253.6 178492565.3 179310176.2 184539483.1 177655499.4 186820155.1 159825803.3 195039731.2 180796444.1 188094550.9 197695606.2 182371316.9 189083769.9 191972054.4 196099483.2 172669141.4 193946511.4 182025279 187348605.1 178527729.9 172817701.9 188149094.6 183087303.3 132163536 63031253.95 30319463.81 
22931860.53 64810106.5 120810883.2 164333314.1 185378840.6 189657266.4 196098728.3 162810857.2 179053647.2 183571342.8 181071706.9 192230817.7 199471252 186226247.5 180451736.8 179632508.9 189859915.8 175665355 181828395.5 193452201.2 191932474.4 169619879.8 179800005.3 189913665.7 178844245.1 179969127.4 176839441.7 162553543.9 190380196.7 186291030.8 175784357 201472117.8 185770394.2 187753305.4 184406204.2 193109762.8 186896114.8 123298039.3 77035684 28480680.43 
25270661.4 72039145.86 127859710.5 181805867.9 185064454.3 192115388.9 177273667.5 205061496.9 178473937.6 180196395.7 166213687.2 186221189.9 182623690.9 169474542.6 188005047 161819306.5 182188520.1 171057774.8 163494752.3 197438640.8 208627943.5 191032469.1 184055661.8 186935968.5 181770804 179102154.6 171228203.1 186295436.7 171889780.1 197887399 211656701.1 187328078 189410543.6 185854106 164139487.2 177197165.5 169790119.9 130181324.8 79089267.01 30074826.95 
31890513.07 74303784.8 124742294.9 177637861.4 188215099.6 183143575.4 168629256.2 179193239 185385356.5 179767202.9 171221126.3 190045185.7 176284927.3 194148280.8 190777814 171004695.3 167381671.6 191216440.7 190286081 183776712.2 187363980.4 180580312.8 174850521.4 181641571.6 167976731.8 181725322.4 181428817.3 196952912.7 169860492.3 193629213.7 181089612 181374799.6 180891314.1 174514004.8 195483933.7 184127676.4 172598056.1 140839170.5 72167482.16 22975261.52 
23295163.2 78842433.97 132434827.7 171429679 186334285.5 184685946.9 180485502.7 178442951.9 185566406.2 171433059.7 173205525.1 176897493 174688734.3 179479590.2 177195438.6 174751524.5 187363376.7 193973787.9 172854499.7 189362097.9 191576650.1 195676188.8 183657776.7 177454970.3 189257999.7 182750815.7 190865436.8 180904032.8 190881800.8 184669744.4 169798828.7 171083710.2 188207524.9 195784073.1 170250300.7 182209094.6 182582091.3 117943437.6 75865825.96 34449774.68 
26837431.39 69593576.09 119310460.4 174521454.6 179262927.6 176621878.5 190851056.8 171007969.1 196303842.1 171511413.3 177396060.7 204809353.5 189343197 186604701.2 177195712.8 176015748.5 181363254.8 165972165.1 176550687.6 195262320.8 193484161.4 176266098.6 191572975.3 184598514.7 195233157.4 191930290.9 182270932.8 180298661.2 176930481.5 161739237.6 181616047.5 199847961.5 197744236.3 204229870.9 181662123 178943317.4 173293525.2 139965246.7 73730910.78 23667221.99 
25480909.85 72460370.46 122772018.4 190332701.8 170817079.5 195502064.7 184966664.5 180609063.6 173326835.9 193661086.3 184041810 186322393.4 192116258.7 181723446.5 181648906.5 193200071.2 171697460.4 195018462.6 165485537 179703909.9 175036124.2 187611209.3 173097546.8 182935788.7 181477622.3 186223937.7 174750219 166325784.3 197275273.1 187347998 190344760.9 182897747.2 183477378.4 174720442.8 204766181.6 191112242.3 184277341.5 138441778.2 78957840.99 31120302.28 
26686742.42 75698506.13 133217165.1 161119511.4 188421869.9 163346216 176631031.3 177777781.4 181021818.2 174402285 198198286.3 196725849.2 177351980.6 171792365.5 187892808.7 182310705.5 199071381.5 193179350.2 193420566.9 173380546.4 178766831.6 198625782.2 186818414.8 192724814.4 196318086.4 187262317.3 180033078.6 183982034.3 164228522.2 178367161.5 187964651.6 182103087.2 191565135.4 172276996.7 156562219.5 188639707.6 173423329.2 124826130.4 78805174.69 27704608.26 
24404242.97 77841081.52 130053618.5 167302104.4 182991212.1 178670263.9 182935553.7 171033509.2 179459358.4 181637491.5 186048975.4 164011792.7 175257897.9 182016832 187308995.4 200595525.8 188236910.7 192181220.5 193121014.4 176583233.4 200118106.8 182013843 183299656.4 186429194.1 173065395.2 185931374.5 167377687 181832256.7 174215676.2 176401346.8 174022316 197860251.7 184147338.8 193312271.2 187631615 185564836.1 164616129.5 140958884.2 77356000.23 32321678.62 
22318391.59 78166989.32 110936150.3 168133399.9 183396695.8 175909020.1 174343173 178539774.5 187979171.4 172948699.3 192445579.2 171823944.3 166473559.9 180783671.6 181830232.2 175973757.3 165135457.6 193006125.7 193400245.7 197099489.2 174520669.9 192453276.4 202254502.2 171444321.9 184549240.5 179248028.7 184413714.4 185227774.4 194146623.7 177016087.8 185718840.7 190742907.7 186323673 187463621 187244413.8 176398651.7 174642585.4 131494308.5 73958043.56 27788986.8 
27637376.95 76146891.21 131728302.1 166315730.8 172276539.2 159201165.3 172508699.5 177700646.2 192935208.5 198043501.3 180121420.8 192670311.1 172938162.4 180882096 171711365 189146960.8 194222641.2 193313416.1 167690396 184780067.6 165490095 184523866.7 201657576.6 191611350 176178475.6 196225878.5 182456535.4 193885577 178254308.4 169851775.7 181233346.5 188003142.1 182302313.6 178967433.2 177803209.2 193364294.7 163314885.7 122884719.5 82095143.51 31685944.19 
23665449.03 78524875.02 118317901.9 152523482.3 181596384.4 197074906.6 175747099.3 181060362 175796210.3 167696775.8 174469218.8 182232414.2 179694720.3 184966041.3 194951200 186947541.4 190292916.1 179815211.9 179585856.5 185188755 190309165.4 186497750 197054976.2 186627355.3 188241088.2 187388671.3 176848519.8 187213466.9 168460518.2 176035832.7 190792125.5 178561816.6 197870227.7 189307477.8 185173634.5 179855742.3 174346085.3 129223545.1 79604532.08 27498005.58 
24155147.03 79400996.98 135138074 182283892.6 178955624.5 183497225 186707513 187415541.6 170280310.6 184277803.2 161947709.3 197565324 195556613 166615163.1 198188174.7 187059785.5 178925395.9 190756221.8 179631417.7 192965619.8 205206284.4 180641027.3 183369335 186772793.7 180004904.1 188325340.3 171761328.2 186874155.9 182925867.7 166748096.9 188168748.5 173509426.3 166690940.1 181652831.4 174401655.8 175176993.6 174574234 124044197.3 72484130.64 32227208.2 
20962394.65 72826320.42 114289159.9 164446760 188461426.1 192008140.3 188421909.9 178062560.6 185759128.8 202137565.9 178090971.3 187043841.3 173134915 186713912.1 193559236.1 192725954 191383155.6 187365913.3 173427676.8 186926185.7 181715859.4 179872884.9 172578776.8 175465553.1 184405554.2 177711709.7 187672664.4 173606635.1 184968401.7 179177522 175161568.2 172739641.8 180652134.9 178545404.9 182751939.2 176176719.5 179202184.8 138661088.6 72456544.44 22150253.01 
31536653.71 77393002.71 135566092 168036221.8 184602773.5 166923199.2 171118455.5 184840908 187378158.8 189065538.2 174021596.3 187484247.2 189433622.4 184555614.4 179170381.8 192573112.6 187596415.7 174021710.6 189612293 188206767.2 171650373 194564978.6 199888491.2 192262343.8 171967360.4 167460798.7 194329571.4 168413619.8 164518427.8 187301790.4 194625559.8 201635673.6 173708945.7 172866029.5 177054815.2 199978914.7 180860536.4 133319213 77444984.59 30140028.77 
21802432.96 82470476.04 133977867.3 179059815.5 171755415.5 193777933.2 179972242.2 170272982.9 187390948.9 176294156.4 200159489.3 177423708.4 169037071 176828314.2 179379409.6 171833801.1 195999609.7 178971237.3 179428827.8 190855214.6 178645444 198298510.8 174105018 178245248.4 180223397.8 189948075.7 187575982.3 179047579.5 178901937.8 190376743.3 189825684.6 183540754.4 177187036.1 169002354.7 176236369.6 176329766.4 153127673.1 138029879.4 83113839.35 29183972.67 
24273865.14 69937765.24 123265298.8 168978307.7 183187686.3 191265689.1 174663111.7 184487614.6 175409513.6 181877875 181894788.4 182669640.2 168696113 195868885.1 160885519.9 162785251.8 182784031.6 185430868 179292540.6 173562713.2 164062610.7 191181041.3 187927588 169301995.2 170616688.1 185096551.2 193848171.8 198447577.3 185516762.2 162349628.6 179439233.7 193513841.3 184718224.8 164223219.3 166851844.4 177760685.3 185388915.3 119343302.6 83051558.34 22002843.22 
23322053.41 71773502.69 123758697.8 171609423.9 180696909.9 182018921.4 189633660.4 159410460.9 180023754.6 173794552 178718288.2 184695937.8 188781697.8 191636456 163626968.3 178703478.5 184652615.2 178018708.8 171128055.4 199927375.9 181221589.3 178278568.2 184084091.7 176198246.6 182928509 186167946.1 180796356.3 185876126.6 193290938.6 190973032.4 187466814.4 190424612.6 193655656.1 171597458.3 176269966.4 179597916.6 180297006.3 135142385.5 76651559.07 21250825.52 
26012335.53 78367310.48 123322001.8 190020165.3 177538858.5 178208897.8 175347472.9 174517459.3 165744362.4 169037485.9 205394733.5 187479237 173612418.1 180956842.2 188205819 195565456.2 192554997.4 174706090.5 184833852.8 172669624.1 190667019.8 190329835.3 187711081.7 174184982 182315767.9 198108249.7 171354121.4 176234702.6 175700498.4 179840795.1 180547640 178630092.7 177857187.5 185581195.4 183002972.7 177455047.9 169330338.2 124273626.9 74711398.14 32999068.79 
16918257.31 78825400.96 118754661.7 164566049.1 160152252.6 183594212.2 176913606.2 176884914.7 183178692 184957856.6 193166909.5 179342646.2 206061137 161505988 178827921.5 211155844.4 186221073.2 177544103.1 185330370.8 193157888.2 178261249.2 198645541.1 177696896.5 179966896.9 175783952.1 192477115.4 180617919.6 171601884.9 172347059.9 177584009.9 178353927.3 179619837.7 163688406 174192061.1 187753586.9 177208117.3 183980110.2 138325589.9 84798710.76 31121219.88 
25167210.44 85114352.58 128936006.8 171058044 188563001 198531996.1 170021451.8 180382206.4 178369255.1 183106688.3 182019538.6 198643616.1 176267113.8 167445612.9 187487650.6 186229283.3 191625409.3 174858223.5 195165203 171460347.1 186034485.9 178208444.4 182848057.9 187088072.1 187666645.8 173749443.3 181237850.6 174962543.1 197482231.7 170425372.1 169661952.2 174721622 197299922.4 178869507.8 178036198.3 164963000.5 186778892.9 131969262.2 81547637.09 23630916.71 
25766441.09 76180460.8 120059335.6 160062664.7 181104781.4 184910167.6 172088578.2 183530517.1 185829213.4 188509020.1 175564711.5 174605911.7 175773665 181136529.2 194756560.1 179576133 187855510.9 191357204.8 196714702.7 192311480.7 182826681 181830559.1 172494584.1 193376694.1 174638724.5 183485796.3 173166490.1 180669981.5 173812258.9 192214128 174636006.8 181367742.1 186590417.8 184225361.5 193448796 163432984.4 182707065.9 151405493 74479180.26 25679139.75 
27043334.5 79669099.33 126621780.3 166776682.1 185262801.3 170592494.6 191776706.9 175251108.5 176216933.2 194865077 165798858.9 175678789.1 189162994.1 180040408.2 194598173.8 188339980.8 177567332.9 184352745.4 188844761.8 172494810.6 186078073.6 185879716 168182388.1 180218014.3 191638086.2 194179171.7 178020832.3 195645211.7 167850924.3 177940885.6 196335163.3 186051141.4 181299324.3 176952432.7 193754867.7 193016166.9 164735441.6 128012350.6 80588014.95 32353548.5 
21021345.44 79771393.14 122429012.2 157673178.9 176647909 175408041.8 157035092.5 168762021 174080732.8 159933629.6 186741942.9 167734864.2 175129143.6 179089011.3 180553986.4 152771301.3 171896679.1 172091301.3 187415479.2 172529464.2 178810031.8 179337436.1 187497519.2 162982103.9 177735958.3 175828559.7 199347111.2 164752892.6 168712060.4 175916475.6 175485066.9 168744942.8 166054162.7 172940210.2 181466502.1 166290816.5 176534565.7 131037663.1 72907767.21 32643089.38 
23215590.8 45045306.27 83899207.87 119932281.6 121882070.9 136848667.6 131818346.9 123321481.2 123586528.7 120401654.4 140177837.4 116607733.6 132337274.5 119746680.1 121257805.1 122186579.7 117337135.5 126539776.9 124340840.4 112991531.6 120917172.8 135338094.6 121140561.7 130236214.6 120139697.5 135187844.5 141740314.2 120044747.2 123544498 145921318.2 130305120.9 136015671.1 122917960.3 114109014.6 130774220.5 123905789.2 113479159.9 84809747.14 51257048.37 20917222.46 
7332098.464 28530292.37 51683124.47 72006454 75836457.57 76842701.54 80921714.45 71091204.91 78765161.22 87394698.67 83838126.81 76883838.05 77160146.54 76826252.59 80122536.65 73728441.01 82343749.89 80123043.94 81189759.45 83527354.99 76138784.11 61562262.88 79145372.95 72493109.95 78873343.9 81335784 89737339.03 67305472.38 78524228.76 74747064.13 85767115.47 77593473.35 72250866.25 82545711.27 76319230.4 76450810.15 64132858.65 61711317.42 25090413.31 13845653.74 
4765754.79 15866099.58 16238201.96 20021217.11 26811244.2 25218979.15 23199100.21 26952411.59 28289418.16 23420209.93 33544987.79 23710265.04 25830746.34 24721347.88 25706706.53 30489280.09 26854388.41 25885889.31 26261502.09 24244489.71 29340118.72 36882491.2 25611300.63 26344728.68 32091007.45 27707813.67 24982220.44 29059785.52 17725474.97 26450019.69 39247546.58 33897687.94 37929963.48 22629414.07 25859325.87 30447347.7 21662141.09 14649210.2 17534193.24 3653593.142 
# Errors [m3/m3_1570863916.hd_vd] I_err:
1568052.856 1850631.994 3138113.155 3055506.927 3673797.828 4089908.829 3532139.502 3380680.042 4018030.56 3341293.156 4180139.027 3924720.881 3506964.516 4064726.733 3580755.155 4262011.498 3190330.581 3427480.484 3414214.428 3693266.255 3506974.372 3060793.254 3513791.945 3837848.054 3454895.575 3597624.95 3274009.459 3600909.013 4461366.199 3058304.297 4152101.76 3924028.028 4001181.055 3222592.436 2979963.956 3236563.872 3570726.291 2795683.142 2448683.703 1431452.555 
2007818.409 4096431.837 4664184.743 5737826.783 6081377.384 6137965.718 5180559.454 5767116.125 5801826.197 5918447.33 6593600.304 5375932.913 6062856.829 5779749.615 5354229.268 5974053.951 5918102.155 6109511.029 5982210.569 5957614.799 6381726.206 6263408.403 6400602.499 5622945.956 6198232.307 5855218.926 6601101.408 5697582.725 6285900.333 5990965.051 6449512.58 6433993.467 6228379.381 6242979.201 6140044.264 5634547.063 6245253.681 5020488.822 3735430.011 1980767.938 
2847172.725 5332515.129 6322335.581 7926935.521 7919227.802 7851964.446 7804457.56 7250221.501 7672002.976 7646523.399 7405887.897 7897670.531 7452613.346 7532994.871 7596625.442 7935301.692 7905676.183 7628060.686 7832410.468 7741981.167 7996710.179 8145457.657 8213715.041 8096966.684 7724918.242 8008451.413 7943282.365 7693735.888 8284523.625 7979994.694 8688493.921 7819075.506 8474186.929 7812333.215 8042056.302 6791062.818 7535285.538 6203409.95 4770327.782 2852503.559 
3887132.023 5748651.391 7408174.013 8878597.71 8545387.845 8999088.362 8595359.025 9107302.049 8998665.067 9075477.516 8939719.824 9133282.823 9660818.166 8736972.183 9179525.173 8719759.3 8797825.003 8708943.88 8580730.926 8293603.202 9700329.812 9176455.207 8946898.9 9311881.403 9426077.386 8824103.552 9123165.939 9216344.117 8642361.346 8564438.4 9109320.961 9124974.863 9498568.843 9339899.978 9161764.625 9331998.909 8832270.837 7053644.866 6300034.911 3785490.728 
4493049.816 5606421.477 8076568.237 8767083.839 9714659.91 9338897.701 9119410.267 8639440.27 8983088.309 8923138.702 9280645.821 8918855.642 9284782.618 9527973.768 9311606.466 9021068.432 8954028.289 9082832.864 9572019.651 9656624.976 8879700.34 9143000.617 9138790.873 9394982.88 9431654.07 8857766.393 8899944.486 9528187.993 9485027.399 9379930.107 10125875.79 9026624.915 9631400.889 9477108.859 9293147.42 9645040.95 9074027.91 7968531.202 5766711.014 3783839.821 
2676114.758 5890186.867 7635686.757 9111389.23 8479793.201 9691441.726 9592361.572 9893683.727 9785929.213 9281954.235 9620148.752 9962876.967 9715096.472 9397794.893 9137751.644 8925552.534 9416167.125 9182248.665 9507590.246 9020544.164 9103293.772 9648862.582 8959218.364 9454549.318 9272079.314 9134616.954 9393156.459 9412616.672 9877004.298 10084376.11 9157593.502 9514173.921 8855317.271 8853010.409 9025045.474 9542928.821 8849531.625 7909116.213 5999748.869 3646822.537 
3050097.959 6131505.585 8784928.154 8865556.901 9492723.985 9225373.048 8807613.059 9291114.633 9048668.542 8738478.826 9802852.755 9553808.609 9226635.446 9566600.836 9416776.81 8911446.926 9388038.368 9583578.437 8822749.918 9530545.925 8832167.747 9337054.767 8876056.8 9729830.839 10035414.43 8889321.092 9169872.948 9185643.13 9455819.438 9304658.442 9771815.841 9647471.146 9438341.836 9486675.637 9282891.558 9511515.594 9443079.599 7698159.241 6519341.235 3595072.144 
3060057.245 5811226.591 7551134.057 9315832.799 9658817.668 9141923.801 8738140.073 10149798.99 9189239.006 9382956.166 8958525.185 9536616.538 9132094.089 9913515.877 9426386.063 8982089.596 9792498.781 9197424.197 9828121.856 10042132.39 9055981.352 8910930.919 9148746.712 9202675.397 9565543.139 9891509.036 9091128.984 9361411.418 9682430.342 9344236.798 9047941.739 9655095.331 9148787.447 9195630.434 10230502.96 9196732.012 8672622.131 8286920.344 5648639.808 4024900.602 
3307222.722 5851398.755 7716199.69 9708610.884 9423869.991 9082724.507 9572731.411 9091039.413 8573767.426 9179737.169 8938585.576 9796408.636 9154809.303 9358996.672 9129987.46 9012874.697 9373950.875 9074988.474 8957466.547 9542028.4 8802453.357 9615077.77 9149816.502 9510611.874 9137961.299 9030916.099 8741919.96 9681856.961 9537476.339 8746787.815 9323840.619 8955843.976 9459658.46 9821042.938 9763588.241 8927835.762 8799058.39 7980075.509 6187103.233 3979070.026 
3378470.664 6131341.197 7750165.796 9106741.612 9829008.232 9303985.924 9837082.257 9275230.191 9450522.958 9343817.782 9236014.018 9978855.02 9441350.951 9110890.085 9204195.666 9501655.894 9398940.741 9704263.306 9320043.504 8601775.143 9139524.714 9451398.711 9773199.581 9027718.201 9102915.709 9871762.043 9280802.087 9399182.569 8867609.542 9848071.243 9347950.167 9669467.814 8854438.154 9512601.209 9237328.675 9828630.828 8887949.95 7692639.839 5715661.235 3186763.737 
3487293.314 6883938.99 7438476.795 8682777.391 9541184.796 9376610.528 9410667.155 9418714.401 10095306.84 9502797.02 10319281.95 9573020.597 9505990.873 9212708.865 8938289.017 9908206.709 9225748.275 9781557.306 8853221.275 9652252.477 9864020.016 9865185.306 9226916.024 8949235.321 10003525.71 9448671.562 9011392.974 9252692.132 9013682.709 9554103.753 9331200.221 9153754.438 9785136.743 8860624.985 9312067.724 9080019.462 9398916.543 7533312.648 6024281.611 3539195.302 
3938956.561 6555738.563 7181954.085 9246734.313 9021082.689 9696318.593 10053720.32 9375557.038 9641618.719 9307720.105 9309884.338 9713971.477 9863974.361 9003007.649 9284739.101 9204706.596 9338645.804 9108801.589 9255540.226 9021343.088 9335465.456 9562328.075 9109813.162 9514446.177 9958033.711 9263943.579 9300754.823 9618974.398 9952671.464 9515748.133 8994010.433 9354975.099 8890223.902 9463108.396 9239672.531 9384654.287 8589792.846 8006232.596 7013774.205 2683281.176 
3453198.129 6501388.911 7315798.221 8793523.05 9556050.982 9006919.161 9402676.096 9286009.578 9771593.288 8845358.483 9331684.148 9114019.677 10035027.65 9258060.821 9493998.371 9022970.716 9584989.807 9484237.38 9336614.799 9516692.439 9405395.308 9626578.896 9754759.828 9232555.166 9697269.841 8701813.672 10032641.07 9232545.292 9179542.339 9215842.872 9474294.948 9800274.9 9427840.103 8997496.848 9511105.408 9596753.619 9192758.474 7637917.139 6308931.307 3799190.763 
3290678.321 6047356.092 7708599.082 9533125.123 9022261.319 9355061.701 9435495.993 8887875.04 10159260.99 9652860.14 9675843.704 9293352.68 9781916.889 9200595.426 9205967.427 9113732.103 9364934.555 9451562.623 9229718.43 9481512.846 8677097.427 9839480.813 9336788.38 9402365.037 9850165.171 9462618.389 9420965.875 9539709.242 9789227.021 9024871.8 9784108.863 9263718.275 9549685.984 9467540.356 9086676.905 9621179.473 9485701.796 7870520.83 5448374.515 3716375.653 
3209378.35 5429060.471 7449070.02 8437994.658 9395267.345 9690821.658 9728174.001 8718589.46 9168954.18 9662387.094 9134450.914 9611343.462 9646926.507 9308273.963 9057798.946 9130312.394 9652174.694 9025047.214 9164090.492 9643642.308 9593928.309 8877058.359 9246919.49 9666680.29 9296596.414 9316535.344 9100007.982 8474114.019 9555332.081 9431630.321 9163816.676 10062804.93 9610101.101 9316127.707 9458782.84 9914813.338 9413831.529 7688128.593 6054771.701 3666722.663 
3406666.366 6072870.65 7900651.387 9487517.097 9618070.227 9796830.96 9219644.171 10053695.73 9584613.605 9244833.949 8777142.29 9560384.831 9157748.904 8920973.418 9742544.614 8784553.627 9492958.248 8799557.633 8626703.582 9823674.837 10290992.95 9577256.698 9251099.548 9557009.511 9378589.057 9418142.579 8726214.987 9601595.871 9063983.636 10045584.36 10075239.31 9373965.104 9739699.535 9250311.674 8655753.704 9292858.856 9032655.964 7944876.948 6011185.231 4148442.054 
3897942.677 5809227.114 7623263.818 9224109.11 9579797.791 9301808.326 8907261.045 9094504.643 9683190.846 9230190.536 9012666.734 9536830.966 9223640.35 9515342.27 9709185.208 8843890.142 9053781.739 9555871.529 9707133.15 9463828.241 9395008.666 9368136.371 8767061.085 9479765.005 8892574.251 9446893.888 9135938.091 9730410.112 8938830.731 9646298.008 9250846.442 9378868.065 9339226.708 9034697.522 9793789.365 9428525.559 9251746.149 8220770.94 5726986.247 3119711.838 
3282625.685 5936660.509 8289071.452 8896164.759 9355961.755 9270115.48 9244604.956 9289239.301 9393980.819 8994650.74 9064167.258 9160321.208 9153789.209 9046657.812 9259221.804 9096027.85 9589702.559 9789357.65 8892945.066 9577940.74 9471168.881 9789891.164 9525020.083 9364866.356 9720504.019 9365920.006 9806271.91 9207421.118 9624478.789 9413434.201 8848815.055 8864228.85 9447264.887 9874075.264 8722139.23 9359966.451 9480473.948 7398123.901 5931069.903 4347342.022 
3718870.235 5488806.588 7550913.839 9094703.683 9362450.257 9032204.358 9714247.82 9106868.281 9825598.802 9022070.591 9254134.471 10210514.62 9637075.919 9465126.097 9284576.536 9268072.849 9253734.774 8917007.92 9133182.283 9825180.123 9426740.242 9137456.291 9806289.771 9526846.029 9851103.563 9732984.795 9362690.588 9214976.564 9300427.019 8680004.157 9518345.867 9831864.327 9810235.352 10108740.31 9137268.751 9017070.886 9031110.611 8325272.574 6129282.549 2976787.461 
3761149.555 6013127.474 7406652.787 9549758.331 8937956.786 9681757.722 9519257.933 9290059.505 8985164.616 9807546.658 9226986.407 9292963.93 9724260.288 9357455.117 9229432.779 9751354.909 8946824.7 9831658.73 8729783.31 9299124.401 9131696.969 9509092.352 8932468.285 9508775.459 9450946.962 9559119.504 9031990.148 8830564.943 9765401.858 9500734.095 9570678.169 9280876.109 9391824.104 9277618.962 10229235.95 9619524.049 9586736.784 8233548.551 6069065.222 4199570.809 
3459719.665 6009448.71 8026462.514 8732418.772 9664395.254 8581083.794 9056981.366 9041760.9 9390950.759 9004600.757 9685152.097 9795158.857 9014796.624 8890430.291 9519188.35 9507508.356 9628854.999 9581765.048 9799079.452 9203086.048 9094942.071 9810459.266 9357865.55 9728567.013 10030148.46 9618033.35 9255818.356 9334467.581 8828206.508 9137106.042 9662311.618 9403643.636 9576241.375 9032617.156 8455257.824 9583691.872 9018739.123 7780965.423 5937586.528 3471508.459 
3209508.417 6196248.973 7880549.657 8799805.433 9308875.469 9161967.261 9343735.482 8846599.164 9303301.606 9181251.788 9481601.475 8800850.419 9009230.726 9329198.585 9614984.805 10004127.91 9553044.634 9773353.986 9773325.924 8922720.882 9767949.356 9357268.82 9277097.542 9497319.691 8878601.801 9267367.101 8781772.755 9297319.728 9142992.509 9218812.089 9026539.864 9734900.307 9020418.924 9673478.099 9718896.187 9694315.174 8949933.203 8321649.38 6104273.997 4104227.398 
3093929.33 6360010.598 7256664.935 8942193.408 9469090.54 9079492.185 9065408.383 9395536.547 9646832.649 8775511.716 9723053.777 8841095.291 8745187.78 9265315.282 9122321.609 9122514.964 8627089.536 9774564.662 9752870.712 9912408.582 9050407.447 9785998.005 9931341.212 9094208.528 9526448.042 9108470.719 9350758.32 9426891.924 9910897.342 9249463.124 9436991.95 9696973.087 9414818.112 9494389.914 9598799.003 8978088.727 9199321.58 8105671.191 5781954.906 3544956.005 
3691619.855 6095753.536 7820452.008 8599160.823 9146382.052 8434432.506 9023766.999 9217814.496 9836413.847 9866297.839 9224583.322 9557880.804 9058254.611 9487437.07 8899825.609 9598201.749 9786876.117 9773846.915 9040065.133 9494508.33 8789688.898 9633776.898 10018682.59 9728743.2 9032316.437 9727341.401 9418856.624 9884882.427 9209110.278 8720980.543 9201678.115 9550746.881 9375928.613 9090954.107 9226737.944 9598482.892 8463372.779 7756741.244 6343615.918 4025594.294 
3391122.982 6129147.318 7272936.859 8580177.012 9278182.747 9952230.29 8958419.232 9570580.171 9295535.259 8739277.778 8973478.646 9382937.87 9224754.084 9469124.043 9880683.184 9608896.606 9607587.014 9335977.106 9285838.025 9487905.335 9839560.846 9601175.968 9838290.626 9504955.24 9475168.162 9344705.077 9348081.682 9577596.647 8891230.034 9236155.113 9509075.727 9013154.829 9531989.067 9811796.751 9146613.687 9289752.244 9223409.058 7763416.768 6332479.253 3616517.204 
3383816.772 6263398.462 8017802.051 9401315.128 9170314.022 9550855.877 9527795.01 9533116.436 8762423.664 9387728.41 8549602.921 9776893.226 9605366.034 8826760.436 9775432.522 9537425.4 9285314.992 9433929.596 9120466.222 9691202.057 10062295.89 9318572.163 9456821.986 9408987.695 9407979.638 9602294.297 8925164.195 9535051.681 9190219.572 8732108.633 9642120.287 8878153.846 8815354.383 9327295.82 9031715.105 8993157.619 9135138.185 7726436.929 5601824.457 3934359.074 
3180083.909 5842345.674 7319511.461 8790059.656 9301917.216 9611046.164 9301413.283 9164415.346 9307650.524 10033224.65 9060209.168 9494989.387 8940533.759 9326855.093 9712484.835 9616087.962 9758139.931 9485119.265 8776221.802 9806629.718 9245649.748 9280585.487 9128750.211 8988928.033 9295415.366 9015873.812 9283831.478 8867530.586 9434200.886 9417339.173 9127977.118 9043188.784 9224481.953 9204174.782 9317079.356 9234575.324 9502426.311 8138756.698 5392469.598 3100211.859 
3815540.375 5924472.487 8154492.191 9005550.873 9357425.608 8905230.24 9125429.087 9467589.314 9768018.147 9523631.551 8932814.121 9526853.929 9785466.266 9257417.371 9171965.155 9615436.329 9644497.703 8946990.513 9574017.945 9596959.881 8905620.282 9800782.554 10162720.35 9664225.736 9058512.685 8804815.406 9874063.947 8968206.824 8778721.338 9379370.618 9774992.297 9969616.653 9072867.517 8992605.189 9121868.402 10063426.12 9388344.639 7938076.726 6079959.996 3708458.215 
3174294.496 6345263.148 7817230.016 9204731.619 9020173.53 9529469.771 9235828.195 8993763.133 9361015.094 8960483.046 10064156.86 9002435.888 8696644.952 9074655.433 9147756.891 8958074.146 9699619.948 9208661.574 9308745.327 9839249.32 9167087.494 9736680.838 8869668.867 9538564.29 9410594.87 9831306.008 9528241.354 9304888.481 9240247.479 9468718.108 9677848.328 9307607.242 9306989.531 8884453.032 9246494.313 9037495.657 8381693.842 8385458.839 6488636.669 3689938.983 
3248018.326 5743672.889 7641886.66 8744123.692 9386347.421 9514514.951 8909089.341 9321848.332 9040941.614 9232136.477 9093850.124 9470134.552 8934221.406 9720956.982 8436101.82 8815011.456 9276790.018 9569878.772 8929187.97 9063440.029 8557312.157 9592206.763 9540539.548 8874843.307 8795593.417 9411994.265 9649397.707 9684171.789 9532457.317 8422175.386 9218362.532 9837288.372 9462776.69 8938911.706 9051453.053 9033546.347 9469929.057 7481517.928 6269128.532 3065825.709 
3243360.281 5699699.646 7619853.194 9162745.933 9291657.749 9423186.966 9472781.266 8338065.259 9188206.851 8851514.605 9270401.59 9353367.872 9497346.583 9715695.258 8774953.34 9218019.251 9286722.334 9097235.168 8993155.895 9894807.06 9263992.641 9171833.343 9496365.379 9191617.846 9464205.797 9566007.543 9269426.917 9530472.688 9726585.827 9622860.061 9576616.785 9724216.381 9732293.326 8958275.698 9056776.617 9100330.927 9279890.292 8023976.669 6000632.236 2869412.348 
3428636.297 6107100.164 7401662.198 9578572.876 9068146.906 9293160.985 8935450.98 9159572.337 8678709.886 8876318.105 10071991.12 9418825.931 9012538.786 9269269.477 9318032.929 9712594.845 9457169.32 9006489.979 9349872.681 8915689.826 9485327.301 9831199.028 9633438.014 8726432.235 9626061.071 9979488.444 8942936.667 8850290.599 9060216.704 9136821.538 9165680.007 9168715.541 9167417.858 9402838.233 9267264.087 9305224.502 8952691.547 7552091.007 6099682.201 4017638.884 
2630737.177 6147073.527 7539773.334 8713710.452 8580781.504 9338792.913 9093888.031 9398908.215 9428208.295 9373161.272 9596984.037 9171498.205 10159205.21 8777602.579 9358438.699 10225300.47 9524105.015 9285418.167 9289448.673 9532248.932 9289467.414 9865881.044 9215640.346 9462124.907 9199627.083 9725150.388 9240160.929 8912025.309 8823454.688 9301359.851 9236817.045 9391144.582 8644888.496 9074492.075 9308829.059 9193149.687 9258016.253 8287414.626 6519047.346 3907061.894 
3527639.034 6454550.676 7795415.414 9060330.538 9417257.299 9815692.905 8785929.46 9262772.114 9335949.623 9377535.699 9149840.049 9872183.589 9098997.338 8943144.481 9233819.909 9696891.756 9587940.442 9198097.047 9837651.174 8940477.365 9590290.12 8975649.138 9448606.914 9548837.214 9455993.629 9013314.264 9203498.989 9252888.925 9993299.342 8875826.003 8878590.685 8989258.531 10003659.92 9254578.734 9420887.314 8775447.399 9622904.637 8050564.491 6231269.06 3269304.795 
3484151.842 5935524.359 7460405.704 8425853.296 9422197.641 9465423.108 9082829.246 9383289.214 9490181.619 9664128.271 9196659.205 8937483.109 9256502.23 9484480.527 9341601.186 9028365.719 9734451.749 9774306.242 10084410.05 9646451.373 9277224.801 9224419.187 8989222.7 9417333.23 9106508.701 9427062.114 9232613.033 9110015.182 9212804.019 9839091.215 8917128.39 9189400.705 9540727.072 9571746.35 9724941.45 8743133.678 9428699.598 8738595.15 5989741.117 3388259.007 
3591556.16 6228414.959 7840180.682 8926545.182 9613341.15 8880866.515 9577377.485 9119271.189 9139472.396 9837317.744 8678261.269 8830868.373 9518926.673 9305035.917 9885233.877 9547973.524 9088235.831 9350127.764 9392968.918 9024065.095 9299175.722 9347295.059 8855042.551 9221896.937 9781380.357 9730053.172 9202471.423 9967607.364 8691424.145 9215003.146 9861641.924 9683222.84 9411085.917 9274675.182 9643704.388 9587414.83 8827325.67 7965076.064 6161446.888 3971301.715 
3079410.51 6167376.051 7480304.652 8679469.709 9094326.861 9227089.924 8656553.861 9072097.245 9350897.167 8534247.331 9718651.291 9026532.437 9098280.804 9462869.184 9278976.776 8479964.532 9192962.378 9155205.353 9476512.99 9104615.319 9124620.626 9334298.877 9601504.51 8676906.887 9231971.917 9130111.914 10097191.94 8637252.31 9102258.662 8937975.72 9342483.786 8931582.039 8994072.182 9121158.172 9182264.629 8877414.88 9275753.755 8188591.232 5937198.078 4315796.548 
3883447.564 4320039.814 6279962.881 7501655.134 7542060.772 8070259.502 8115715.965 7861634.93 7441976.941 7324804.75 8239119.042 7485479.238 8287142.778 7689903.793 7489282.813 7542452.744 7329751.431 7853934.554 7543600.277 7379552.11 7234121.621 8162982.223 7389080.634 7848961.682 7483855.547 8272587.34 8255334.39 7538096.43 7401685.695 8489599.568 7908622.387 8084220.804 7574762.698 7301519.065 7904936.239 7462427.12 7234255.334 6198005.247 4901914.296 3043335.893 
1604275.15 3650825.133 5052744.32 5715558.068 6208179.609 6152134.645 6104683.415 5910302.144 6245124.136 6549619.507 6440616.498 5808566.689 5842235.53 5918523.572 6229144.275 5613866.852 6507698.471 6176910.008 6176029.456 6385422.467 5820001.107 5223764.203 6150317.191 5991136.472 6081739.001 6207497.194 6498052.745 5345356.047 6253318.61 5726037.968 6583783.777 6223212.698 5774320.728 6353148.264 6219834.716 5886173.896 5403024.487 5456399.285 3293322.107 2710572.271 
1529472.268 2988740.353 2666525.486 2832631.558 3504415.191 3695128.008 3258155.308 3626313.056 3851982.708 3416289.306 4272834.183 3285743.271 3576481.301 3487022.893 3596151.207 3789999.548 3488063.987 3593414.731 3570296.056 3456288.652 3836312.423 4239060.888 3314998.564 3598202.338 4066939.226 3611317.701 3504438.546 3976701.258 2517406.065 3619080.971 4376675.688 4395314.347 4371275.438 3003729.848 3746368.898 3699334.404 3142758.332 2352139.576 3048238.103 1295538.701 
# Events [m3/m3_1570863916.hd_vd] N:
16 54 80 109 117 111 105 109 139 124 131 126 91 111 109 118 109 109 106 117 107 99 113 111 113 120 93 124 115 107 116 124 116 105 105 96 101 74 46 17 
51 140 203 304 311 327 310 306 319 314 321 314 332 294 297 330 319 311 302 299 327 312 345 307 318 307 314 319 327 302 364 346 313 313 320 285 337 222 133 42 
72 225 355 550 525 527 477 504 552 529 510 513 484 507 488 515 512 516 558 519 534 539 577 544 518 541 534 532 551 528 561 525 530 522 571 498 535 367 225 84 
121 309 511 663 692 742 709 751 709 695 716 718 734 732 713 700 704 722 691 630 728 753 733 706 738 743 727 671 678 719 714 741 751 693 701 730 700 463 321 112 
146 313 531 707 822 716 745 779 706 740 780 772 745 761 740 711 717 777 746 777 736 746 740 750 757 743 729 773 730 722 789 751 838 742 729 797 751 527 306 102 
88 308 534 762 710 808 776 808 780 755 758 781 761 776 744 713 719 735 740 751 757 800 763 729 740 756 757 816 787 768 747 804 763 707 745 750 711 528 332 101 
104 292 564 758 761 746 757 719 762 703 774 746 765 770 754 733 704 764 727 792 760 737 736 739 803 686 756 732 768 736 760 794 732 736 779 766 737 531 349 122 
114 290 538 763 735 760 716 748 743 749 732 749 744 801 743 763 778 789 761 786 708 750 773 737 757 755 739 770 763 733 787 778 765 776 766 749 716 566 327 119 
100 318 497 689 741 743 768 790 702 743 740 765 760 731 724 718 724 735 758 735 698 780 756 775 752 707 699 804 722 728 742 753 779 797 804 772 712 546 327 124 
128 325 516 687 773 723 836 736 750 790 723 772 781 747 728 801 763 783 730 725 730 703 784 718 776 792 728 780 723 761 765 797 753 772 748 781 670 549 331 104 
112 340 522 703 775 784 800 738 788 727 803 752 738 776 703 783 703 732 720 800 781 758 753 749 777 738 739 773 731 769 755 734 815 697 733 732 697 485 316 111 
122 325 455 736 718 811 798 752 758 727 773 752 754 753 753 779 757 734 741 739 738 751 748 777 797 773 720 761 802 725 732 774 692 728 709 754 747 527 338 106 
123 317 490 688 747 747 753 710 747 715 770 755 777 744 781 688 743 742 746 734 737 755 769 724 742 727 774 786 765 696 737 780 748 716 759 749 691 504 337 109 
117 300 541 702 772 761 734 727 761 743 729 729 776 701 744 743 754 766 733 736 710 767 751 768 797 751 786 814 770 724 740 728 763 702 740 765 700 538 282 122 
95 293 507 738 766 749 773 718 750 718 749 782 799 783 780 772 777 733 749 769 761 723 724 723 737 744 758 718 785 763 745 793 724 788 747 747 788 500 314 116 
105 282 514 738 746 736 764 821 662 751 700 747 762 720 744 716 730 735 695 791 790 772 783 715 738 742 723 771 715 772 822 768 763 780 720 744 695 540 330 104 
129 320 503 716 761 747 701 762 743 754 731 783 728 825 783 740 680 771 752 754 758 757 740 739 720 740 778 806 713 766 741 764 735 723 780 757 707 572 302 100 
102 344 503 713 783 764 735 738 738 712 725 753 709 767 762 741 743 759 739 780 808 766 729 713 762 747 738 766 787 795 745 747 771 749 767 755 735 501 326 120 
105 301 495 718 718 744 743 721 767 738 740 787 747 769 754 725 772 699 705 744 794 740 781 745 783 773 723 762 724 700 752 796 775 785 767 764 702 549 284 121 
104 294 539 777 730 783 735 744 749 743 778 776 767 721 772 778 727 761 717 766 717 775 746 761 746 734 739 692 793 773 764 772 754 722 785 789 739 568 345 111 
103 313 536 695 735 712 751 731 721 701 783 774 777 721 786 747 806 771 770 694 753 784 776 773 757 779 761 779 728 758 756 764 763 732 732 766 711 506 346 113 
108 305 534 744 754 737 720 729 713 765 763 716 732 765 760 786 748 765 788 717 814 747 767 775 720 764 718 768 709 745 720 789 793 742 750 740 699 532 315 117 
102 314 507 716 770 749 728 722 745 752 764 741 731 737 767 731 724 779 774 761 735 761 807 719 752 744 762 755 771 737 751 781 773 778 789 757 712 533 307 120 
117 320 521 699 730 736 723 754 758 784 773 767 700 739 731 781 759 770 686 755 716 718 802 767 753 753 737 734 750 735 763 778 730 742 735 807 730 494 319 115 
98 320 508 635 770 777 739 738 732 736 752 749 709 742 759 761 765 749 725 760 773 741 791 766 757 794 734 786 723 737 753 755 817 735 786 740 707 534 298 110 
97 327 549 708 742 741 770 761 730 754 727 781 783 723 806 763 739 781 772 767 822 739 748 776 736 780 750 745 779 722 752 739 707 746 762 728 741 529 328 131 
90 294 480 705 790 764 793 739 766 772 745 759 741 792 775 801 749 782 759 724 732 736 729 771 773 744 783 722 781 766 747 773 758 752 769 716 701 560 318 98 
141 311 531 683 775 684 711 765 727 763 761 767 734 781 739 778 726 752 777 763 775 779 748 778 736 753 784 707 706 776 769 774 723 706 759 770 742 528 319 127 
93 328 541 738 752 799 732 715 806 742 755 782 747 727 769 751 792 746 758 754 746 799 737 723 751 802 736 739 759 790 765 751 716 737 747 751 681 544 323 104 
115 297 528 734 752 779 755 790 771 783 747 745 720 805 729 706 758 747 765 750 727 788 758 731 760 769 765 785 757 749 754 757 763 712 675 757 744 504 317 113 
109 314 490 667 751 736 788 716 752 774 737 780 756 730 712 711 758 747 703 807 760 760 752 720 740 748 777 765 760 764 778 754 749 738 755 753 754 564 307 101 
110 333 546 753 751 751 750 732 732 722 808 793 738 750 791 787 790 758 766 779 807 759 768 732 718 767 746 768 749 737 755 738 765 759 759 734 697 518 301 124 
90 321 507 702 715 756 767 721 747 786 764 745 799 687 742 828 731 728 795 784 728 778 722 735 716 765 760 746 742 734 753 750 740 732 768 752 753 559 334 134 
103 335 523 713 786 831 741 738 760 764 772 796 724 706 768 725 764 693 783 757 762 744 738 756 746 745 757 699 753 737 721 734 738 752 748 697 728 516 330 105 
106 308 510 674 754 743 701 732 761 756 751 778 718 746 851 748 725 761 748 760 747 773 726 811 764 746 695 775 762 772 758 771 777 759 762 722 736 575 323 106 
112 308 530 676 766 698 800 752 710 761 692 755 787 744 789 759 754 770 787 723 766 761 734 768 753 770 767 767 733 758 801 761 741 761 766 787 679 518 351 130 
103 339 515 674 764 711 652 694 706 708 702 707 720 686 735 673 705 712 765 706 755 742 731 710 702 709 761 737 692 733 694 719 710 728 744 701 690 507 298 104 
72 211 371 490 522 560 502 518 530 513 570 506 536 495 517 520 509 510 521 475 524 550 530 522 500 524 579 475 522 565 525 538 514 501 525 523 469 360 208 82 
41 130 203 303 306 327 342 301 318 351 335 341 328 313 330 331 319 334 329 344 323 295 338 314 335 348 368 291 292 329 313 312 311 343 301 321 278 238 121 50 
21 50 80 101 114 91 100 110 105 86 123 114 111 95 105 116 118 115 108 107 106 136 115 99 119 108 127 99 92 102 143 120 143 114 111 121 98 81 61 16 
