# Format: McCode with text headers
# URL: http://www.mccode.org
# Creator: McStas 2.5 - Dec. 12, 2018
# Instrument: Test_Sources.instr
# Ncount: 1000000
# Trace: no
# Gravitation: no
# Seed: 1570824924
# Directory: Test_Sources/4
# Param: source=5
# Param: Lmin=1
# Param: Lmax=11
# Date: Fri Oct 11 20:19:15 2019 (1570817955)
# type: array_2d(40, 40)
# Source: Test_Sources (Test_Sources.instr)
# component: m2
# position: 0 0 1
# title:  Intensity Position Position Monitor (Square) per bin
# Ncount: 1000000
# filename: m2_1570817954.x_y
# statistics: X0=-7.01331e-06; dX=0.0288419; Y0=2.24464e-05; dY=0.0288352;
# signal: Min=1.26973e+08; Max=1.7858e+08; Mean=1.51428e+08;
# values: 2.42285e+11 3.40322e+08 999988
# xvar: x 
# yvar: y 
# xlabel: x [m]
# ylabel: y [m]
# zvar: I
# zlabel: Signal per bin
# xylimits: -0.0499998 0.0499993 -0.0499998 0.0499999
# variables: I I_err N
# Data [m2/m2_1570817954.x_y] I:
159719234.4 150451630.5 146227087.7 142462783.5 157908599.8 154123747 157749964.2 150731599 138921206.5 142065722 136821262.3 146304323.8 140320619.7 153588916.6 152578401.6 151251918.8 145690289 162894868.1 146891346.5 147067634.9 137068395.5 131993341.8 142814492.3 143199589.1 138727960.9 174234073.7 153361880.7 149884078.4 137878509.8 129464825.5 145872309.7 137914450.8 140109957.9 160747534.9 151066850 158503146.4 154329809.5 155820917.6 152164389.7 150662082.5 
135895322.9 161598268.4 141360781.6 143816412.1 153497326.1 142382502.4 165718569.6 137221070.6 148118873.2 144670955.3 146150883.2 152173002.6 152473033.5 158044605 162275131.2 133059641.8 146502704.4 150938055.9 157195032.1 161030168.3 154385882.6 146093537.9 143117333.2 142663357.6 164151397.8 151909922.5 145056392.2 150401913.1 153323580.9 135356927.7 154436596.9 148116153.3 144229887.3 155296891.5 176773664.3 138269184.5 149202277.3 157237132 141859122.6 147541956.8 
146696254.2 153095044 141557988.5 161423449.6 146211158.5 145079050.5 142820458.3 162625792.3 160153121.5 162115384.3 163858996.8 148292580.8 150505146 143080311.4 161557281.9 162999817.6 158744234.2 156973388.8 148862255.5 155148068.8 166206572.7 151444722.9 153468202.1 156589603.9 160017805.1 165839591.4 145391068.4 155712939.4 162681603.3 148646264.4 165334604.1 166700607.9 152700006.1 144795542.5 142613177.6 139794741.3 140078934 162883627.9 137199618.2 147071391.7 
148367855.6 144831757.7 132480668.1 138684014 157921675.9 159131362 157213309.5 145038357.5 150088682.7 141786365.3 142806781.1 146283959.2 160940435.5 152547354.3 152936388.9 158267395.8 170583004.1 152521979.2 149191101.1 142557453.7 139709431.5 137027295 154727163.7 158373805.3 146886649.8 157555762.3 140807338.1 140715434.7 161070521 152149762.6 157586744.9 165554313.7 165582493.4 142665685.5 168519156.8 137418347.4 154190909.9 136860949 147886797.8 150783988.2 
154225997.3 146935695.5 150383710.2 153303537.6 150418290 131070988.6 169999404.1 145090185.7 151349878.3 156388088.7 148099009.2 157590851.1 160971517 152136225.2 147598338.3 149018085.9 143922387.7 146894065.3 155483866.6 144480071.1 141953287.1 136973957.1 147158259.7 152905142.4 154720253.1 165072846.7 136424344 164260276.8 161485785.8 161101288.1 133435637 126973111.3 142865205.1 153462714.8 143369428.6 141317923 151249762.4 159647767.5 143936298.5 144638696.7 
145440511.2 154630244.7 152540196 150577073.8 151485558.1 151692189.9 152937171.9 163507690.7 144622299.5 148647679.3 149731779.5 144121866.4 150893879.4 153274319.1 150918160.4 141156551.3 157828060.3 153743704.6 153255760.2 164312646.6 153457487.4 161722459.2 145186810.5 154244499.6 151629966.2 145615199.5 160255038.1 150687448.7 145527544 153820342.2 140637737 162276510.6 164728242.9 167615295.6 150024608.2 149266263.5 143439135.8 139399607.6 165076516.4 155157571.4 
147911269.8 145723099.8 164582534.7 163110964.9 138724886 171261031.8 150377747.6 149314289 142050465.9 159891957 157177239.3 143266323.5 139261156.2 160434085.7 147697191 149337208.3 163074649.7 133119049.3 152399793.6 145835621 151704139.4 147498016.5 145833915.9 159896248.9 157526909.4 146112912.7 152158180.3 151058649.6 155408913.1 146370921.5 159946449.8 144329956.9 162972194.6 158932687.3 169017221.2 145972685.1 149262423.6 137069830.4 155025510.8 151130418.8 
153088788.9 153286090.4 144023110 163404029.5 141846242.8 142413398.8 136342600.9 154965173.9 157903512.3 159619309.2 148607205 137430279.6 135949240.5 138269560.9 158821727.5 149295699.7 136556960.8 162048595.5 154139398.4 149626686.6 142446932.9 158439925.6 158236309.9 152109856.5 148822325 150765961.6 137597659.2 164192131.9 148355786.6 145975509.7 163457134.8 146397192.7 149434902.8 147382036.8 145478265 152246897.1 144271588 154109976.4 157184119.1 143423852.9 
152785730.7 146175659.1 158788096.5 144234209.6 159413109.3 156732794.4 139983034.3 143821587.4 144466683.1 159367570.3 149888361.7 140639285.9 153311197.2 146533563.2 158399923.7 159246575.5 142770280.3 167846419 146687233.2 150172259.4 162294992.4 133706586.4 140336649 158279600.8 159933475.9 164233608.1 168634656.4 167347133.3 151463279.3 159597703.4 152443694.5 146418848.8 152152476.2 141667793.9 155518617.6 139383746.9 148103670.7 159048190.4 152152814.6 134637015.5 
142097955.2 151032614.7 170711935.3 153873726.2 135292076 161789549.4 162556031.9 152127056.1 144048149 151842727.1 161087984 149429028 143111356 149571137.4 133487247.6 151252983.9 147183624 145908801.6 145554647.8 166067411.3 166126734 131497315.2 167369704.9 159861057.5 148679760.8 156936475.2 163859636.6 142793628.3 147391994.1 150569708.5 141455779.5 157075626.4 151377358.5 142779336.2 163996224.3 161383074.5 148532782.4 144021112.3 145587970.4 157437618.2 
157608575.5 157160551.4 145963787.2 144846568.9 155868813.4 139113594.9 149550663 144119049.7 164537540.5 153911361.7 151204866.5 142686524.1 161155188.9 160258868.7 153827437.8 157860340.5 150733345.6 144554130.9 153110405.5 161405026.4 151624451 150311995.1 159566098.5 151450456.1 167081677.6 149000698.8 155070405.9 159200974.5 136729664.4 147595905.6 141963383.6 149508271.1 159142566.9 155900358.5 144638258.3 148752630.8 145927048.2 156059021.4 148130478.8 154552791.3 
158292366.9 161216230.1 145626846.3 139829659.7 155242724.8 152010973.1 153813009.4 146585902.8 144131253.6 153757742.6 136033758.2 169945331.1 167439144.8 142436006.1 149203551.6 156616431.9 152512428.6 145342281.8 142000332.9 149139653.1 147655539.5 139905986.3 167649092.6 162330416.8 159833921.2 141423434 164284968.1 150376953.8 132996645 148675036.1 146873856.6 141818323.7 141458955.2 146280319.6 164689203.8 149011420.6 157570625.6 134959020.3 159848807.3 159621249.5 
149572864.7 150159377.9 156667653.6 151682223.1 157416786.1 152148460.8 149567692.1 143560767.3 134328686.7 153572176.6 146903468 154542370.4 157038390.4 141144085.7 155708733.8 151059032.3 165646912.6 155314564.7 157210282.1 148442994 158413510.9 147587522.4 154812585.5 153321442 151286927.3 153615222.7 160042493.1 162260780.4 167703903.6 148783280.6 148193221.6 150145174.4 141178271.2 134318836 154360154.1 153865339.7 156602280.9 154888339.1 153322198.5 167713582.9 
144576581 161112427.8 145858734.3 166795060 146604312.1 148249870.7 146507250.3 161073933.4 147003285.9 151238343.9 159844420.3 168311814.5 162319470.3 171370143.7 148128712.6 151947998.8 166379143.8 147577406.7 154772566.3 156838684.8 145933309.2 146628173.3 151030796.4 163583934.2 143067647.5 146861314.9 165901142.8 141163832 144832888 159715279.9 154888964.6 161720058.6 145139679.3 151540707.5 157776844.1 148655121.4 151191317.4 132103884.6 151279357.6 150857613.7 
157013143.7 171943329.2 148940299 148951390.3 152900071.7 139042220.7 140830871.4 149276485.4 141350005.3 143522353.3 153858049 162654497.4 151353243.4 146883163.9 154151116.6 156110629.7 150061160.2 153529254.7 151953592.5 147152348.7 139120013.4 149153968 150506057.4 161579546.1 173075242 152494212.6 165598947.3 162185698.3 155292077.2 157986821 152238450.8 142339634.8 140133319.5 159090649.3 161827537.9 150914364 147238724.2 144350157.8 157773143.4 147695798 
145773177.3 156503227.4 150715072 142741504.6 155351176.6 155966756 152158085.2 151523045.1 165940084.2 159376396.6 163575998.5 147638927.2 148828173.8 151848155.6 144074615.4 164265219.2 142048788.2 146806025.2 168053638 150730217.6 156938263.6 162088771.7 155442796.4 138175537.3 158127415.9 166245243 146347576.3 157205805.8 152036087.8 152504141.4 154592604.4 154157187.7 146247567 162609524.5 155491972.3 147169803.5 152552623.5 159885216.2 152325528.7 144288741.2 
159242384.1 153473317.2 149805961.9 154507590.9 157823639.5 147563079.6 145908803.2 171143143.6 173161285.6 160171533.2 158780728.8 155696351.4 152337437.8 142935970.9 152495516.4 155174067 156468504.9 153465422.3 154225382.9 149724744.9 148664364.5 169783442.8 148495939.2 142076135.2 162933387.3 150367790.5 159270960.3 164106163.6 150364244.7 161170145.1 159508896.4 156725208.5 161507162.7 135994216.3 155808034.1 148908521.7 157757318.9 148251392.6 143180048.8 157209027.9 
156581380.6 151902217.8 145869950.2 166686979.6 144504767 160964563.8 147920731.9 149569693.9 167421504 159726776.4 148793775.8 144718965.5 156545035.2 154997435.7 146045411.5 155650344.5 152348308.9 157669577.6 169652160.8 150371532.7 148490123.4 147602335.2 146830939.8 148068979 157633107.2 144439664.7 159600529.1 157412742.8 162645482.3 136770303.1 146688059.2 165765281.7 167637782.1 160108326 158995292.3 153050040.6 145503018.7 144893240.8 154431675 155770426.2 
150228661.3 148539721.8 147246810.3 147258226.2 161151741.8 152836344.6 142845656.4 147505653.8 141654961.6 165263971.8 153158609.1 149767095 147947249.3 158382764.2 142640804.6 158301612.6 150971299.9 160904373.7 161077612 148074763.2 147505656.4 153464670.9 142330937.1 143652583.2 140426523.4 166065344.1 141367072.8 169801491.4 158220504.7 153134584.1 132076283.2 141439686.4 138774413.5 151889886.4 138541162.7 148778696.2 144917128.7 160585330.5 145590754.3 136853942.5 
151018729.5 141543884 148775552.4 161760674.3 152284393.1 145089490.2 158052772.2 151256773.1 139605031.8 143907370.6 175225177.2 141290410.2 142865872.1 137707368.3 145346696.1 162367421.7 159133555.7 150501999.7 150703009.4 155847408.3 132600819.4 149391620.4 152591004.7 149973386.5 151809564.3 136367071.8 144990458 140545621 153270150 135729616 154487389.9 164999028 157830494.3 141607534.1 158833894.3 148810041.3 156726687.1 153892877 142329428.8 156364908 
157065389 158446465.3 162011270 157006485.1 152010417.2 142462205.8 148380681.9 156133783.8 144171867.1 144545812.9 135598796.9 152039733.8 142297492.1 170464870.3 152692904.4 160093684.8 148643944.3 156982081.9 174110480.3 148158965.1 165676623.4 145245365.4 145516305.6 144458202.1 134140985.1 141500250.1 151917984.5 151353636.9 149312366 145030090.5 156402009.5 138454494.4 143731416.5 142292762.2 152877266.2 146571841.1 153584925.1 135209076.8 147056862.5 148473126.8 
160517027.7 159127467.8 144405333.6 148066757 145617156.5 156116040.1 146449544.4 143503681.9 155097326.8 144798107.3 155968442.8 130936126.8 145997090.8 153121953 141288744.1 159953472.3 146552754.2 152495320.2 147823581 156691891.6 147070690.3 151024674.6 156240930.3 151185628 165990110.1 149583671.8 150709118.4 157688108.9 152973947 156754055.8 140461400.4 142849495.8 147679762.4 152605740.4 152637831.8 148558858.5 151287285.3 145556698.5 159615656.5 150679382.9 
150342942.1 153863730.6 162291653.4 161538089.6 158842486.1 141705550.4 159236393.5 136364232 153049075.8 152963067.2 154953805.4 146311549.8 147926016.5 162333281.1 152476109.8 155531807 150088024.2 134531401.1 147581071.3 169429898.1 148622338.9 151836893.6 141850227 149389006.5 157917222.7 139405021.1 146700310.1 147152847.9 167923845.3 151577246.1 139586716.2 160874059.2 162055556.5 152040327.1 155567678.4 149709016.9 162861235.6 153603481.4 130237814.2 148007027 
149565213.3 148299404.9 152480646.4 158369611.9 151485074.1 156447073.5 178579550.2 156632019.6 159391849.7 157929563.3 151927249 153569294.2 148797786.8 140112846.4 154810192.7 149581347.3 142803721.4 161361214.4 155090456 146008559.6 136800151.5 144621948.8 149302845.5 153347001.9 154799248.4 148186734.3 158070330.9 144151391.4 137073297.8 163450856.5 149837846.8 170948714.7 145371526 151585272.9 171043736.8 139627431.7 144512336.2 160978983.5 152499102.2 143554602.1 
141995750.2 147108248.8 154285000.3 144169971.3 149778676.1 143945377.5 140362883.3 157967117.3 157430733.3 132243750 150819905.9 157324861.5 145294621.2 146049694.9 156576064.5 157865394.3 139141879.1 135376460.6 162613260.6 161239657.7 152541283.2 151218358.5 153002018.4 145575434.7 154073941.9 141806924 158478710.5 163922386.3 156740741.7 147435252.4 151898793.6 154645023.5 146570642.7 135329749.9 140671316.6 155470229.5 148323570.8 160615504.1 154898820.8 154032474.4 
156480699.5 147699792.1 150313740.4 156970312.3 154365841.7 158328265.7 150505394.7 152383945.6 161995562.3 156803600.8 167996950.3 139833549.1 161687110.5 161831364.5 159153311.6 139249447.1 152135151.1 161698920 152268937.6 149464343.9 153022313.3 139246048.1 145707541.9 147797210 136639354.8 148163064.4 141618920.5 154798502.2 155673334.5 155587392.6 140469057 161145805.4 149155314.5 147333375.8 150917196.5 140783330.3 149873533.3 159937640.3 153146048.2 165403383.8 
142356381.7 161597847.9 151766433.8 142658987.3 156248237.6 151699916.8 162031945.4 155760808.9 152018243.7 154538233 139704234.3 162477061.8 149207217.9 134652307.5 153723174.9 147317894.1 164530452.6 142518430.7 151206725.4 152049342.9 156073557.5 141272050.8 159567250.2 152798379.9 161098241.5 159578377.6 147824424.7 151997109 151445756.5 169139191 142657311.2 157444176.3 137966851.6 149609505 143180481 148116162.5 166415677.4 143382481.2 156195696.6 150795131 
151513658.3 144410931.6 152352945.8 145109015.1 154157998.6 134591262.9 138596732.1 151285942.7 148398097.1 164941988.4 148646831.5 145797197.1 131094356.3 139096828 151156534.5 150302220.7 152593078 155725639.6 152151517.5 147196053.5 148888687.2 152388938.1 139356023.4 136558748.4 156937770.1 147377374.6 176845422.6 150217231.3 154004298.3 153710569.8 146502107 142779953.9 154750338.3 154305135.3 156821173.8 162350874.1 158932482.2 142355724 161255139.5 153525672.2 
152567746.3 149603801.5 152558880.7 157021407.6 160282796.4 142105470.1 139016086.8 138349370.9 147783440.5 137042839.5 145152567.2 133616165.5 151056307.4 155424058.8 163132454 144632050.8 149342191.5 135917599.1 155946770 157268937.1 152334411.1 146223060.6 144394990.3 151207265.5 156472465.1 148505865.8 164827589.4 150545007.7 136361966.4 174673578.1 146265349.2 142903592.4 153349466.5 165730213.5 149732183 154205003.9 137495288.5 144256991.7 143168717.7 142633789.8 
158351410.8 156895945 144106590.1 163175057.8 151456052.9 148532519.2 157951161.4 146099178.8 141959248.8 161072854.4 138126864.7 148917875 165573190.5 156052774.1 152875969.5 154586335 144137303.6 165595972.7 139042677.4 153647953.3 152481676.9 157456435.6 170476809.7 141360543 160428554 159680646.9 167084298.4 152509967.4 157308175.7 151608257.6 156314376.3 145041410.7 144315593.9 151752555.6 158297993.7 155497647.2 154699631.7 153927845.6 147309263 164395228.3 
151593593.3 164453014.7 140899049.5 146561542.2 157865231.7 142223016.5 152885925.8 150158423.2 147383665.5 157723140.2 160683750.9 148053026.2 140674968 148866400 143357910.8 147291756.9 151137355.9 147624610.4 149550939 157731772.3 149570411.3 155311069.3 134957967.1 138098099 151918001.2 150003899.5 161258936 144956465.9 148862732.5 148391140.9 145804843.6 143507831.8 139052295.6 145818112.7 136965156.1 142343354.6 147855225.3 146696909.8 141013941.9 145571778.7 
154437768.5 154802539.8 151907844.8 149137562 150195779.2 139578645.9 149569343.1 152792067.4 166607782.1 155121264.7 153956438.6 147054673.7 151492837.3 140471838.8 132092627.5 152032730.5 160035618 155546274 151463828.8 152522268.8 146700025.3 155856556.1 166532124.1 146149463.6 133007007.5 155287875.7 163692512.1 154241821.6 155026932.8 155138413.4 144863223.1 147700566.8 146857376.1 144617599.5 153633503.8 141803433.4 148467564.3 149218968 161510273.8 154220621.3 
149427801.9 167030978.3 151517330.4 141120989.7 157280902.5 153417677.5 153423432.9 154334953.7 145861649 142997407.4 153756052.6 153060596.6 142432397.9 142233431.4 153876189.9 149662882.2 138182307.2 144324594.6 150663442.4 161457110.4 147809520.6 148235229.4 161840957 159629307.8 136383318.1 150345108.1 159366496.6 149103792 151926196.9 158602820.7 156258348.1 152449062.4 158767158.6 155349658.2 160049104.1 158931813.1 136692766.1 154381131.4 153289011.5 153485022.7 
151229186.9 159175052.1 163038605.6 142340447.3 158233992.2 153168085.4 160465387.1 151676456.4 153229962.2 148027774.9 140040305.2 152191488.9 154710751.4 152240155.8 150266498 156752048.7 146870629.2 148898577 138786881.6 138594753.7 151458485.6 147881780.3 151648473.6 147553196.4 162747976.6 153395782.4 143528410.2 159037582 160161211.1 150343854.8 164274083.4 161462389 145838275.3 160588326.4 147251554 140599347.8 145729595.1 153028047.9 151055337.2 156196321.8 
159143106.8 148669433.4 158162720.8 153781431 152657733.7 155931160.2 151169654.2 150740455.2 145475011.9 132757383.8 151867086.2 156415717.6 148705539.7 142226981.1 145426168.7 172469962.5 152794821.4 154954910.5 156561579.6 147406755.9 146682712.6 165199212.7 148612743.6 154404733.5 153752314.9 156912573.6 151728052.5 151313017.8 154357145.9 142805629.5 137865637.8 133062076.6 158637047.1 144329115.6 155199542.1 146949176.4 163184267.6 146057677.3 143773170.2 156696644.5 
161036624.7 161076972.9 157071412.4 143407839.9 154389400.1 149160314.3 148332722.8 145591683 149830423.8 143892502.8 148536101.1 151717034 141342235.3 152649329.6 152458692.2 156010069 165504845.9 152704149.3 166119375.2 158588732.9 146221956.8 145052447.2 150721512.9 157116270.5 144040653.5 159023355.1 144625191.5 157958435.6 146138116.2 150969237.3 164940369.8 154552263.3 140414114.2 155424555.1 158941985.6 159770545.5 152811050.2 151464681.2 140811927.5 172779162.8 
143484459.7 146648031.3 150147282.2 138444643.5 148933982.5 146877196.5 145930938.9 143683193.1 154800751.5 145521296.1 147350124.3 162278612.1 174080650 156964423.6 160398999.6 160579963.7 145037300.1 167035166.7 152712898.6 143509257.8 155070145.6 143159803.3 147473784.8 165719329.7 151829638.4 148275738.2 160224948.3 151049367.9 158668615.2 168586672.6 155885602.6 144088865.4 154632581.9 152310132 159300266.1 165600310.8 172376012.8 142026350.9 151609174.4 135454799.9 
153030580.6 154076483.8 158320277.3 147641848.8 149152746.9 143768651.4 156113849.2 146897004.2 140707875.9 145408195.7 155543357.2 142433276.5 155285276.7 138479350.8 148400499.5 155747941.7 157354274.6 151990511.9 172907344.5 140703071.8 154619941.1 145332524.1 158819568.1 141022915.5 149351537.3 159082207.2 137194436.4 157989127.1 158596241.5 155011928.5 164208043.8 146442074.4 140049781.6 150149917.3 145241086.4 151172038.6 153712968.6 150808406.2 158225900.7 163936558.9 
161683998.8 151157495.3 151379192.1 144741243.9 155181771.4 161978328.4 150814974 151069807.9 134641402.9 154101006.6 157336362.6 159724977.7 146984228.6 158505381.7 160118292.5 160571318.4 155397431.3 150547463.4 146485305 163491119.5 148576366.4 147120017.8 151005087.4 136659234.9 166080002.7 158078516.5 157929988 149541322.7 169412459.6 155545966.5 159159355.8 139050749.7 141292680.1 143325167.4 151431749.1 145895788.5 159509005.3 142058630.1 129305602.4 144958547.9 
140282977.6 142444992.8 156715227.3 157447307.5 146239634.1 149526816.6 150799644.8 145907837 140726072.9 160732869.9 147608448.7 150375961.9 150831127.4 149415320 152154397.6 159662807 147681906.5 165411766.4 146222975.4 145258573.2 144777875.6 144762779 145170947 151746898.2 161721023.9 143051814.4 145405109.2 146215586.9 150038126.2 144858389.4 146010048 138898868.6 154394843.6 145072310 158290637 171186446.9 148309897.9 163799619.1 154223113.8 161069617.1 
# Errors [m2/m2_1570817954.x_y] I_err:
8902617.724 8402795.178 8448548.166 8197077.934 8802570.799 8466577.032 8724738.006 8338741.839 8134168.607 8134818.432 7785545.435 8243366.194 7923799.235 8452050.289 8729230.597 8475859.439 8063486.665 9199213.694 8502501.04 8437425.839 7906678.227 7666602.42 8236154.529 8142109.793 7963580.964 9408176.222 8572617.537 8560395.749 7962587.098 8045954.069 8511640.741 7707437.299 8064998.052 8851530.493 8221141.148 8757479.261 8606332.39 8641014.573 8430162.376 8372842.171 
7916761.711 8822096.263 8080495.956 8445345.167 8475410.533 8245081.364 9107681.325 7854942.151 8575135.754 8340611.348 8476027.192 8646708.328 8457182.355 8559613.173 9062653.532 7616240.954 8395501.411 8303698.402 8675848.962 8951568.615 8826441.778 8281093.908 8224342.872 8082502.019 9019560.643 8441789.099 8118765.366 8311217.167 8461598.046 7749882.483 8701436.675 8407063.453 8148667.112 8463813.966 9293919.028 7969952.869 8376558.355 8689800.614 8039109.181 8316587.109 
8265621.568 8448333.197 8100370.641 8993528.889 8337825.711 8253996.953 7839148.488 9058450.539 9053583.898 8863267.724 8913979.492 8382922.082 8422615.993 8073438.303 8774796.339 8600851.872 8723374.282 8483364.752 8358834.059 8515521.576 8953004.336 8586616.014 8690885.102 8829065.746 8782319.241 9098629.92 8307677.863 8545527.967 9002653.685 8371117.707 9020767.593 9085415.62 8561130.757 8106884.219 8302561.422 8260374.957 8235141.222 9066425.476 7732693.821 8313657.341 
8426195.426 8197175.507 7768109.352 7887913.163 8836108.011 8621611.032 8611322.704 8359493.204 8414576.244 8275960.4 8111011.641 8250718.219 9025466.156 8353850.895 8523334.818 8765270.475 9255173.936 8579723.473 8371774.471 8231967.346 8146666.339 8157831.87 8471658.612 8394626.517 8269614.642 8662148.122 8139075.028 8085184.507 8647680.589 8567063.879 8690255.093 8732062.957 8924391.221 8198610.405 9090493.513 7948233.762 8887770.469 8127910.607 8507003.495 8446187.272 
8571668.234 8382121.268 8473033.667 8602872.407 8400491.274 7692168.258 9360028.753 8184772.399 8489718.627 8696772.006 8303648.105 8699795.812 8728577.457 8557900.711 8641375.011 8382912.428 8294575.927 8424433.842 8572524.493 8433063.157 7923255.331 8051577.748 8584370.285 8445771.416 8663212.503 9074419.774 7995084.182 9215681.797 9023445.587 8930436.369 7786816.296 7656402.629 8135334.699 8540241.595 8301290.072 8319845.683 8291082.114 8765768.559 8390659.209 8514419.568 
8346247.041 8583073.369 8549892.094 8484488.897 8444145.345 8370737.931 8583321.218 8998422.313 8129465.847 8653013.651 8394741.283 8143531.219 8310505.966 8541784.276 8216859.077 8339033.328 8583547.494 8678583.273 8556533.146 8846895.971 8656936.422 8959278.71 8271163.322 8481353.607 8510500.195 8285466.342 8697797.35 8473227.145 8145938.33 8664562.102 8224771.857 8919924.177 9146688.914 8944654.847 8326771.763 8607526.33 8274597.942 8394744.615 8765869.084 8762236.599 
8331078.391 8420660.528 8924601.671 9001026.932 7814546.482 9311262.989 8596897.402 8302901.314 8278750.485 8963177.212 8677950.067 8029200.019 7966877.848 8963476.644 8429912.641 8414227.845 8996716.82 7958997.332 8578887.022 8299823.106 8491986.307 8286219.213 8167407.713 9072502.127 8639775.874 8192007.087 8616465.036 8429909.815 8678258.346 8335338.769 8700631.755 7974902.268 9073776.67 8645790.994 9250457.566 8394575.291 8283782.354 8013519.856 8886481.989 8417114.694 
8612385.192 8583525.502 8278497.653 8810093.004 8240698.718 8038029.709 7895655.768 8488623.454 8643621.566 8830915.006 8457532.775 8047593.178 7979823.963 8172807.963 8709457.458 8426818.249 8076156.784 8775516.679 8593610.185 8584498.458 8427930.509 8713013.645 8642149.279 8526998.792 8496489.285 8396824.326 8067586.828 8827490.612 8565296.74 8245227.195 9050830.215 8250594.879 8443153.376 8496684.276 8215572.167 8590422.3 8204240.853 8716119.492 8775855.981 8264062.126 
8486200.205 8398457.86 8705758.513 8327058.727 8508790.598 8723445.72 8192295.306 8266991.992 8302236.067 9006974.698 8372805.752 8049301.909 8672719.679 8127975.829 8819398.871 8661249.188 8034235.864 9167679.1 8520336.967 8330419.824 8763678.495 7727761.23 8147425.264 8575476.074 8746219.246 8999390.568 9077383.408 9070097.928 8446203.095 8728132.56 8736629.478 8326347.581 8626366.416 8163608.085 8557053.096 8052882.399 8403029.444 8991645.907 8538923.398 8023015.707 
8268789.369 8537150.69 8864143.755 8498772.934 7836319.096 8623785.697 8865597.852 8481799.576 8046487.391 8339288.761 8905698.747 8327601.422 8114539.798 8383091.211 7821455.103 8605396.907 8523628.616 8257317.986 8084074.883 9146728.952 9193685.17 7588215.338 9160830.606 8773379.912 8432290.667 8690227.692 9138956.242 8143283.195 8391223.45 8509813.471 7977041.34 8672870.978 8375808.609 8445953.765 8908791.771 8936465.221 8555383.082 8367425.644 8301254.728 8651965.304 
8630007.328 8843478.795 8218963.097 8500388.811 8587701.368 7818339.228 8460120.165 8184983.219 9117509.519 8635982.509 8393150.608 8199069.78 9091052.344 8848936.715 8526054.947 8711389.284 8612187.437 8339954.457 8708242.183 8796407.29 8531141.887 8524123.71 8766979.729 8518501.707 8932813.58 8334038.819 8904516.884 8838805.853 7928027.273 8248726.105 7976659.895 8540348.395 8740286.707 8968632.558 8165950.127 8317983.595 8248375.387 8726995.636 8484553.598 8445229.782 
8709506.509 8655592.39 8218044.935 7752579.761 8483926.297 8600704.635 8581961.892 8309582.422 8350387.023 8256394.31 7754834.722 9238906.956 9050120.25 8192238.571 8336880.008 8545346.472 8493303.088 8213774.231 7982612.775 8608104.11 8400019.087 8146083.532 9421581.995 8873088.862 8897474.51 8315362.434 8903709.656 8289972.656 7971947.656 8303869.614 8439669.296 8050961.778 8193796.317 8376841.006 8887423.458 8233457.308 8898462.515 7840762.912 8740065.683 8634534.472 
8515161.96 8850642.197 8917162.697 8672995.486 8725659.877 8584814.631 8563012.467 8268105.631 7948887.655 8480773.115 8126221.161 8717458.343 8677285.025 8002757.487 8866408.047 8657070.216 9108098.437 8820289.707 8722763.642 8279381.586 8781806.903 8261888.962 8543894.435 8500073.437 8528915.802 8702708.422 8860344.512 8854940.828 9107438.462 8592998.507 8348988.236 8527401.7 8229131.713 7876212.267 8635421.093 8635342.331 8859897.185 8391316.854 8534087.643 9106168.466 
8334874.184 8957824.809 8435367.247 9143442.892 8054851.156 8350309.296 8287833.245 8873282.001 8204559.827 8426090.548 9130183.754 9108288.717 8768068.582 9334027.883 8398852.668 8677491.748 9110985.935 8192753.106 8704837.343 8763409.046 8320746.348 8120945.638 8567198.309 8914799.329 8198835.208 8436394.534 9154611.846 8098906.989 8133525.485 8777462.352 8532513.26 9115246.049 8162760.591 8534470.993 8644884.015 8481162.136 8598960.493 7772335.65 8604004.206 8672516.886 
8720045.246 9159794.313 8369533.012 8446470.64 8527492.799 7941585.819 8209941.17 8287639.415 8340107.898 8310351.368 8790313.214 9089041.889 8516474.483 8275200.27 8527687.333 8498775.216 8507817.588 8589696.045 8602750.643 8238216.639 7995027.757 8634234.816 8674666.675 9028729.712 9379927.489 8570984.047 9195930.108 8974235.35 8408888.966 8626103.736 8459320.788 8025917.826 8127169.93 8795759.38 8831232.346 8525605.229 8249703.638 8038809.73 8812565.873 8306763.665 
8592150 8755197.266 8510876.722 8132508.873 8542727.34 8697978.302 8489843.049 8562675.841 9058761.2 8783692.015 9132781.26 8269002.488 8484249.2 8790319.918 8229997.432 9004105.46 8056091.519 8512728.698 8964655.297 8412980.675 8936524.645 8825374.396 8846969.194 8268029.702 8753203.802 8914634.687 8304906.794 8808003.862 8620181.428 8578762.165 8559173.548 8701069.919 8252443.903 8999413.19 8773321.672 8250091.399 8455276.741 8999760.647 8580192.091 8322549.782 
8633145.525 8788096.559 8151934.281 8588496.975 8498293.292 8407166.168 8225843.008 9349297.637 9134646.513 8941427.883 8814558.874 8536617.635 8556825.048 8244902.807 8652178.568 8776331.533 8806504.153 8733254.1 8591510.55 8317712.003 8400349.746 9162629.219 8416830.916 7868908.464 8902533.591 8576421.233 9011925.04 8980131.015 8381187.866 8926221.724 8799579.222 8766098.234 8874503.773 8007262.288 8709536.062 8264235.657 8599294.338 8241678.605 8247082.88 8832660.147 
8695053.664 8683678.825 8270732.057 9188150.85 8141396.187 8912537.239 8335904.48 8359698.087 9215113.738 8905954.44 8393194.735 8030803.51 8689870.712 8661636.934 8508112.199 8663128.872 8494063.492 8749656.774 9084587.139 8446094.254 8473226.796 8363832.647 8293171.689 8178649.364 8696177.766 8280835.864 8885777.91 8685394.923 8906449.319 8046467.912 8547961.131 8926103.081 9012681.535 8919398.195 8679029.627 8538065.594 8325549.343 8508435.968 8648364.355 8738052.919 
8410234.683 8259005.418 8318787.569 8500613.182 8813902.515 8273185.538 8196740.511 8476034.175 8124040.722 8997221.03 8235871.119 8560570.31 8091429.207 8618793.455 8325497.051 8786496.651 8543950.765 8761860.138 9004887.338 8458008.343 8230748.282 8374767.72 8313225.429 8056585.051 8126942.784 8996557.73 8281067.191 9165112.173 8870671.233 8543406.336 7841722.606 8271567.791 7930635.817 8496192.762 8080622.443 8492171.897 8325050.704 8482244.1 8361167.382 7683141.327 
8297266.605 8006392.576 8343746.112 8908405.528 8527939.555 8213965.197 8861522.04 8313554.235 7986440.613 8367972.258 9273824.25 8062050.083 8197461.481 7970718.772 8137286.176 8723055.093 8802693.928 8582421.469 8711140.829 8965728.111 7910654.487 8371435.681 8736229.501 8358504.356 8708535.988 7715405.843 8165500.764 7965962.368 8345789.265 7964582.366 8596745.797 9066204.043 8825964.417 8105127.222 8955372.004 8561782.478 8932525.044 8671525.798 7847040.155 8883418.101 
8700452.108 8765864.77 9031122.79 8730692.892 8645427.71 8217111.462 8628221.634 8633508.269 8251186.186 8424208.853 7681207.307 8522631.392 8259801.07 9152089.559 8772830.616 8681724.014 8317702.704 8772838.187 9222125.71 8403515.34 8982200.451 8227458.989 8463178.964 8390545.52 7982636.079 7914307.031 8476842.257 8446544.628 8445705.749 8082678.589 8856680.146 8030604.867 8199507.465 8106862.826 8597333.045 8135417.642 8527993.717 7928288.386 8347970.616 8534649.825 
9047282.851 8751020.883 8240755.241 8193652.76 8344687.694 8756035.17 8081324.875 8136986.338 8679941.745 8161963.148 8792839.542 7744097.295 8458632.948 8745517.493 8240433.081 8799930.936 8366172.409 8555060.922 8332441.402 8902599.166 8439395.326 8520873.841 8665402.573 8787161.489 9123217.168 8500583.943 8633468.857 8437317.612 8450682.325 8729497.135 8102874.054 8277178.083 8308180.18 8551250.196 8574811.988 8198888.014 8473105.472 8277398.344 8738446.135 8192359.292 
8382952.178 8528508.673 8814820.448 9154169.731 8736277.535 8174340.185 8699810.106 7728162.191 8721830.465 8587820.961 8745535.832 8183602.087 8469081.396 8935182.021 8668030.352 8426726.029 8503531.324 7981995.388 8735760.59 9260045.41 8368157.448 8856174.134 8278286.254 8570486.413 8814908.216 8211056.825 8631634.629 8471800.185 8891547.765 8567616.579 7770500.257 8914051.964 8887288.114 8597167.732 8347778.043 8513357.381 8805066.039 8537620.09 7458900.32 8404404.61 
8567352.064 8232354.265 8740385.65 8550392.966 8446366.199 8916621.107 9561224.747 8761511.752 8792771.211 9036919.115 8514737.321 8791436.58 8639940.777 7972190.665 8841145.87 8350928.148 8056132.858 8982067.812 8546168.158 8452910.098 7981107.777 8432784.914 8332502.093 8624586.306 8318273.976 8264320.195 8850240.66 8179240.731 8142321.4 9108969.242 8565615.111 9229173.72 8403760.675 8414724.271 9083415.072 7937662.961 8313604.811 8877276.62 8692096.403 8319189.648 
8410246.612 8142489.069 8809052.059 8213754.646 8406353.419 8205392.411 8256493.941 8485747.16 8607097.059 7612376.92 8399692.929 8723713.367 8191417.061 8182664.543 8692222.223 8683563.179 7879072.821 7709810.87 9032036.888 8777423.009 8640993.584 8310141.05 8575590.857 8388277.834 8642439.25 8251851.045 8840001.195 8888171.916 8697530.996 8273409.459 8624397.995 8391867.936 8471623.613 7869130.153 8216510.168 8709317.801 8323929.552 8897590.494 8648253.126 8776563.973 
8677022.479 8148937.937 8467740.124 8751466.181 8608968.872 8712357.024 8448765.477 8367524.747 8976935.088 8664687.729 9261502.017 8100859.468 8911086.461 9052347.517 8748481.07 7969990.437 8528792.453 9129009.292 8549946.332 8610476.201 8437800.788 8341919.484 8305825.347 8490206.63 7717677.122 8595001.837 7936502.966 8764332.023 8710055.004 8829575.086 8186449.946 8637963.413 8395097.204 8462103.103 8507062.325 8100702.977 8160168.907 8672517.668 8482287.109 8975790.61 
8381650.801 8828936.111 8265564.333 8145630.632 8669652.719 8565400.482 8641494.713 8841834.155 8670316.604 8638664.742 8000471.868 9056404.494 8264034.267 7709139.905 8761685.5 8340343.097 9126484.643 8175698.354 8524527.277 8431278.692 8712002.509 8028149.053 8872227.994 8568088.862 8798632.261 8725262.418 8381131.896 8621904.369 8477490.928 9085010.456 8196940.599 8620969.733 7989796.797 8490373.933 8385848.465 8469477.01 9105783.45 8116171.451 8437911.569 8508548.572 
8457010.482 8244359.206 8643425.905 8352109.751 8664605.248 7945118.565 8032444.104 8519558.734 8594512.639 8948919.866 8408732.808 8200373.032 7720621.525 7980846.693 8555259.473 8718463.329 8464207.663 8428841.075 8828233.578 8252108.251 8335405.721 8807672.343 7948104.316 8029298.19 8688827.622 8343508.065 9101071.051 8337085.857 8524528.864 8575204.757 8394797.666 8392817.305 8605734.208 8603475.417 8586202.439 8803014.863 8781603.496 8122641.979 8852302.472 8868729.251 
8523245.551 8535451.185 8255516.182 8657935.608 8943184.955 8171432.539 8106635.795 7947590.245 8337384.949 8107356.747 8274930.226 7760111.479 8509425.798 8664104.743 8790078.8 8130137.906 8525774.545 7870085.46 8797737.154 8580728.89 8609676.945 8473537.337 8283190.262 8400859.992 8619267.763 8494959.619 8859294.723 8215782.3 8119512.817 9380027.045 8519777.8 8237833.588 8487053.312 8991530.745 8650963.777 8736198.617 8035935.693 8314418.319 8124499.696 8308534.192 
9005950.634 8662227.093 8068579.288 9092148.535 8452569.515 8319929.88 8971799.645 8252791.24 8538632.998 8792695.182 8206113.516 8352491.334 8623702.894 8670191.969 8747968.941 8611611.619 8252198.298 9158382.647 7886477.991 8560984.762 8470585.961 8808580.992 9190035.987 8190183.667 8886680.01 8979348.204 9116722.567 8534183.214 8704126.87 8358388.802 8754743.914 8398285.245 8207155.912 8316784.854 8772674.334 8541815.125 8626670.115 8881934.162 8261455.518 8704093.5 
8400882.755 8972123.84 8012943.076 8369865.711 8570032.092 8284876.35 8586405.109 8429916.129 8221322.372 9031173.326 9063372.049 8653479.394 8074343.14 8413584.85 8302168.352 8246135.956 8246090.881 8155475.474 8486259.253 8852268.288 8299137.721 8507451.055 7962481.086 8229128.634 8677669.399 8362886.562 8852385.05 8178100.794 8591421.968 8368107.431 8452809.319 8098153.237 8174769.392 8222376.622 8004609.138 8259294.679 8146025.135 8329507.369 8068666.738 8382032.524 
8487560.231 8360329.533 8439845.099 8421502.13 8318144.051 8095765.985 8596685.166 8391024.285 9010539.645 8647546.228 8513809.982 8295018.666 8691999.962 8196691.412 7823033.353 8520244.648 8778157.572 8608601.776 8457949.688 8569360.619 8452994.194 8430561.901 9206754.923 8462423.101 7939680.303 8615017.822 8897598.657 8469527.084 8438051.819 8797127.526 8341250.077 8123128.05 8482232.974 8224324.866 8398499.759 8193148.51 8376412.041 8263919.301 8659099.308 8543983.777 
8283618.632 8927861.347 8620216.153 8128638.628 8666716.057 8614124.577 8451644.498 8583230.854 8230919.861 8061327.735 8601701.247 8477624.898 8405335.444 8079268.214 8688838.944 8263109.22 7824821.491 8304911.301 8558483.139 8924487.854 8203157.914 8599023.098 8684750.068 8792331.378 7912236.146 8618517.011 8894635.09 8447437.56 8763800.368 8592651.159 8956938.243 8692923.564 8773868.162 8628497.421 8851927.572 8839814.733 7897975.963 8464643.574 8468358.17 8744204.403 
8453874.918 8757955.179 8812470.255 8130293.133 8656097.401 8795053.808 8876078.1 8394282.837 8484131.42 8386729.32 8014529.294 8541608.977 8835758.353 8489738.778 8444156.493 8702602.509 8521309.505 8384574.227 7941379.877 8282915.765 8480961.244 8102010.207 8471585.011 8344965.686 9074066.501 8751876.544 8113174.559 8905502.061 8841698.211 8790159.068 8835779.092 8896629.936 8151515.484 8881163.208 8301749.273 8062644.895 8236710.226 8543522.653 8295891.14 8576072.862 
8785004.597 8337330.661 8739844.134 8674784.073 8738911.283 8704460.255 8288975.338 8496510.594 8196340.144 7777993.042 8533767.404 8791304.929 8474485.035 8102101.319 8105231.956 9292906.721 8693899.152 8592476.672 8740799.886 8373228.564 8163330.5 8800290.432 8343353.867 8642023.969 8596183.146 8608863.202 8320358.842 8477142.102 8748121.897 8121146.485 7978529.566 7883052.351 8542111.839 8358080.674 8679443.325 8453607.345 8858959.979 8338029.695 8193056.306 8722228.8 
8736818.987 8752586.187 8647511.218 8242032.851 8785359.173 8416110.82 8128444.471 8226511.064 8577211.976 8244108.349 8336008.774 8546695.628 8191775.336 8656857.749 8711867.36 8803543.446 8945085.036 8640298.382 8948165.798 8620036.336 8193646.386 8177958.282 8414104.283 8808831.626 8332661.126 8848305.124 8301180.862 8715004.969 8466926.112 8364907.899 9087950.393 8829662.77 8078048.432 8686215.511 8777472.338 8985054.898 8513253.723 8479558.691 8135797.759 9297561.724 
8145382.358 8249077.207 8415716.094 7801962.873 8346791.905 8449160.123 8418231.24 8355459.011 8566288.242 8331919.876 8357300.409 8985211.601 9444790.875 8721365.656 8848440.58 8707828.349 8358956.542 9176262.199 8587503.187 8149017.112 8508542.673 8240183.894 8414733.609 8990620.579 8479365.234 8155776.211 8700263.813 8527326.478 8802809.11 9241114.679 8702956.609 8312748.422 8603258.729 8413964.81 8818131.066 8879828.761 9240258.68 8325919.986 8488886.466 8196475.568 
8457569.768 8645238.691 8948482.73 8284599.092 8402265.781 8011413.748 8535488.353 8270942.667 8248852.93 8133660.537 8708614.857 8181488.073 8547009.697 7942134.587 8264350.066 8832464.869 8755023.372 8291325.314 9271901.776 8150315.543 8596071.367 8212384.088 8912860.931 8149421.257 8241241.857 8996267.338 7787792.028 8551849.559 8734548.47 8741749.818 8788996.496 8348245.773 8106353.564 8411748.496 8341640.162 8460598.566 8657572.426 8349458.587 8925265.915 8794563.428 
8845235.461 8581170.539 8551264.085 8312088.867 8640329.7 8900554.296 8600805.51 8692282.595 7802987.122 8751402.543 8762173.814 8686934.738 8457212.045 8820358.434 8636840.507 8811915.145 8655684.873 8550284.265 8388016.873 8983522.093 8530754.147 8096714.828 8542523.088 7738728.572 8853953.531 8697983.381 9100910.7 8476784.634 9221729.818 8416490.625 8775279.528 8040903.565 7901649.153 8338031.259 8661484.476 8355176.124 9044153.565 8012154.582 7755402.381 8199472.041 
8017652.892 8200355.631 8584952.025 8909657.711 8288610.369 8373684.301 8411131.893 8316486.093 8054885.205 8966605.167 8154283.451 8544384.669 8469589.174 8642275.83 8466070.688 8887477.027 8481812.451 8988733.597 8602420.683 8314586.815 8053334.293 8135219.25 8452244.409 8173734.062 8929265.35 8263827.541 8150580.361 8283222.659 8687813.171 8590059.355 8294471.511 7845456.843 8885837.93 8453562.165 8723702.076 9201284.117 8361633.82 8896686.329 8476402.667 8898592.108 
# Events [m2/m2_1570817954.x_y] N:
635 638 618 623 619 630 647 663 624 615 612 602 614 642 616 624 630 605 598 594 602 583 603 610 603 679 650 622 599 558 576 644 593 640 638 625 636 625 641 631 
591 641 613 598 645 587 654 592 593 598 602 603 662 660 631 606 610 641 665 616 612 608 624 594 648 640 614 650 620 583 603 616 606 664 684 613 641 636 625 630 
607 665 623 635 599 619 671 639 604 633 643 596 634 604 690 677 644 664 638 629 688 648 609 634 634 636 588 648 635 620 670 652 649 641 636 618 579 633 626 602 
651 636 565 615 619 670 631 589 624 575 607 614 640 659 605 638 682 621 621 608 596 603 667 662 603 657 607 610 653 618 662 666 677 583 651 611 598 558 614 636 
630 622 621 610 649 602 621 632 612 637 599 646 658 608 589 637 590 592 663 588 636 586 578 643 633 652 616 629 620 653 586 577 599 605 610 576 650 654 616 599 
608 638 626 628 636 649 629 647 637 602 622 618 656 634 656 559 657 599 635 675 641 630 615 661 601 587 651 643 622 612 614 652 624 673 609 592 589 567 660 633 
624 614 654 634 602 688 632 632 598 622 645 634 615 634 606 601 659 576 624 615 633 623 619 614 651 656 641 630 627 601 643 627 635 653 672 610 642 593 608 613 
631 630 631 662 597 614 591 651 625 649 606 587 586 591 630 597 564 656 667 618 611 659 630 623 603 617 597 646 628 620 623 651 624 604 617 631 613 633 639 615 
627 584 648 609 684 621 594 622 615 643 628 630 604 657 640 681 607 668 625 641 662 578 599 647 638 624 663 649 627 625 622 621 642 598 624 612 601 635 628 605 
584 641 667 648 577 667 669 630 612 616 630 635 608 645 605 623 592 618 622 650 618 600 646 622 637 640 623 606 612 612 630 654 639 579 661 618 588 590 605 645 
663 636 619 581 680 605 623 620 644 611 645 603 633 617 639 629 624 584 622 664 618 613 639 620 657 642 599 621 611 619 644 622 652 610 604 603 640 626 608 622 
629 677 631 619 648 639 633 625 626 631 592 656 650 622 624 674 630 615 617 617 603 588 636 637 643 595 651 628 577 617 609 616 587 593 656 654 606 573 639 636 
600 564 623 587 636 615 603 605 599 651 616 641 628 629 620 610 649 609 637 648 644 602 649 627 629 617 635 657 696 598 622 599 591 609 623 607 632 674 627 671 
584 627 593 670 645 624 608 638 638 624 628 654 645 639 593 613 621 617 627 650 631 622 604 668 600 608 649 631 619 657 655 630 627 626 644 606 610 580 629 611 
639 682 612 608 636 637 618 646 592 590 600 649 649 620 634 666 614 632 614 639 622 589 625 618 679 628 648 649 630 662 635 624 603 644 648 630 631 650 642 617 
594 637 599 603 638 637 613 623 645 640 647 640 617 617 609 641 613 608 666 632 620 659 605 586 646 666 615 631 635 617 642 634 612 633 630 621 626 633 636 625 
630 621 629 633 677 624 611 668 684 657 651 625 627 596 606 610 613 626 620 624 594 646 588 636 651 617 616 652 621 654 627 635 658 589 636 659 650 618 592 619 
614 597 654 643 616 630 606 639 647 635 627 631 636 618 577 626 629 626 685 620 596 597 637 650 621 615 631 638 635 594 613 671 663 644 660 626 614 570 644 625 
638 615 640 584 653 644 579 613 598 663 651 634 634 665 596 635 607 667 659 638 627 657 569 624 631 668 605 661 627 627 575 567 639 637 606 619 627 660 587 611 
649 615 606 630 638 600 603 619 624 603 666 630 613 600 626 644 627 629 629 610 547 626 604 644 617 629 618 616 661 578 629 645 634 625 650 586 594 603 666 632 
631 638 649 633 613 619 603 621 577 601 619 616 605 675 621 684 609 634 664 603 649 610 613 594 582 622 644 614 651 628 615 614 615 599 608 623 632 578 613 594 
644 670 620 656 620 608 660 618 654 641 621 571 616 637 599 656 614 631 629 625 605 645 657 590 665 611 590 706 667 633 593 600 608 628 629 634 630 596 647 638 
618 623 656 600 620 593 658 626 633 649 607 595 614 628 624 658 610 572 583 663 635 605 595 637 630 559 591 617 662 650 626 626 643 607 637 606 661 637 593 620 
615 652 615 669 639 596 670 629 656 590 631 600 565 591 626 616 626 638 633 578 580 609 631 598 633 630 640 603 576 636 596 659 605 636 681 632 626 659 609 561 
585 614 627 601 623 602 611 647 656 579 643 640 611 618 642 628 641 620 641 658 614 632 620 609 630 609 623 685 647 609 629 657 581 599 595 645 617 627 636 617 
621 630 610 649 628 656 637 647 654 639 659 585 641 622 659 606 629 602 646 598 651 558 590 621 602 601 612 629 642 603 595 635 617 626 621 585 657 635 656 655 
589 662 645 636 629 607 669 590 623 615 583 629 633 585 617 613 623 577 601 653 625 604 659 609 658 655 600 588 644 655 598 656 590 615 595 625 654 624 662 656 
623 619 604 595 626 593 615 587 621 658 630 634 598 614 632 605 613 670 596 613 619 600 613 567 655 617 704 630 639 635 624 620 624 622 648 637 662 579 648 603 
624 597 659 651 660 600 570 617 609 574 614 621 625 613 651 646 625 576 632 645 617 626 597 637 645 603 665 632 567 659 606 606 642 648 602 590 569 605 608 590 
612 640 635 625 626 626 596 612 571 669 599 618 685 649 610 635 628 633 621 633 625 636 671 620 634 628 663 642 638 663 633 591 605 668 644 662 598 604 638 666 
641 637 622 596 655 586 639 618 665 616 602 614 622 638 617 640 639 627 621 625 636 660 578 580 619 625 632 618 591 612 604 645 584 592 595 598 646 600 640 619 
629 636 630 636 674 575 597 633 637 631 649 634 604 599 570 627 643 636 615 628 609 632 622 605 591 628 659 637 640 629 611 620 615 620 650 584 611 651 668 647 
632 699 609 598 647 607 643 652 625 628 625 622 585 581 628 655 587 624 624 648 628 601 662 634 587 613 633 633 593 660 640 625 656 650 627 660 573 645 653 606 
618 658 656 614 646 609 642 610 632 634 584 611 605 618 615 647 596 632 604 593 635 646 633 649 639 615 620 617 635 609 654 638 623 635 629 619 606 608 641 632 
643 630 600 619 595 624 648 614 610 579 627 620 588 595 624 662 610 635 606 633 611 669 643 640 649 667 647 613 614 602 585 578 682 634 615 604 655 622 624 647 
655 618 642 597 622 613 639 612 579 625 602 617 595 641 606 634 666 635 661 658 610 632 633 633 622 636 588 617 591 620 635 605 610 642 625 616 612 608 623 650 
594 652 599 596 632 602 600 592 638 599 608 667 684 643 656 634 598 650 627 603 617 625 618 690 647 650 641 613 627 628 646 604 634 656 613 672 660 559 621 571 
654 629 611 623 627 622 667 624 590 637 630 604 621 617 656 619 639 658 665 608 623 617 643 586 635 613 622 635 669 609 645 637 615 635 609 618 628 633 626 670 
644 621 621 599 624 632 597 607 587 627 634 664 622 612 687 613 627 606 595 646 593 637 615 602 680 647 605 621 677 643 648 581 631 591 612 604 620 612 588 623 
625 602 657 633 631 636 648 588 612 637 628 622 605 610 654 628 626 637 616 605 624 612 601 653 643 611 640 631 626 606 622 602 601 600 650 678 614 641 661 644 
