# Format: McCode with text headers
# URL: http://www.mccode.org
# Creator: McStas 2.5 - Dec. 12, 2018
# Instrument: Test_Sources.instr
# Ncount: 1000000
# Trace: no
# Gravitation: no
# Seed: 1570824924
# Directory: Test_Sources/4
# Param: source=5
# Param: Lmin=1
# Param: Lmax=11
# Date: Fri Oct 11 20:19:15 2019 (1570817955)
# type: array_2d(40, 40)
# Source: Test_Sources (Test_Sources.instr)
# component: m3
# position: 0 0 1
# title:  Intensity Divergence Divergence Monitor (Square) per bin
# Ncount: 1000000
# filename: m3_1570817954.hd_vd
# statistics: X0=-0.00015599; dX=1.66108; Y0=0.00156813; dY=1.66068;
# signal: Min=2.17999e+06; Max=2.15801e+08; Mean=1.51426e+08;
# values: 2.42281e+11 3.40319e+08 999965
# xvar: Ho
# yvar: Ve
# xlabel: Hor. Divergence [deg]
# ylabel: Vert. Divergence [deg]
# zvar: I
# zlabel: Signal per bin
# xylimits: -3.13691 3.14458 -3.1408 3.14301
# variables: I I_err N
# Data [m3/m3_1570817954.hd_vd] I:
4542158.633 13777353.55 19148192.16 24226863.34 25655737.1 22384463.47 27897290.85 26166053.78 24867637.22 23092724.58 25827920.85 24635616.92 30181527.93 23145229.41 27078704.81 29557530.84 29902588.52 32687406.8 20338078.35 27451142.42 28424808.07 25557905.35 25755337.18 29613830.48 31529975.77 20309097.16 28501996.15 25755134.98 26871556.22 28022175.5 25201428.19 30482786.86 28052849.71 28867955.64 28419000.08 26853933 28549033.27 17816895.51 11269000.12 2179994.916 
8758715.126 30753184.29 64844170.6 80441064.58 73695121.01 75736208.23 69983208.09 85427506.2 77840265.28 76795012.1 73124971.3 74549900.11 70402882.05 82374446.66 76301462.47 75178631.35 72961227.81 69155375.53 71779417.66 70247155.9 70328712.49 80815997.09 85986575.86 79568059.77 77162403.6 73561687.32 72977817.27 80005194.66 76549558.1 62709211.19 69631471.11 79544293.67 86020953.81 67250200.02 89325529.6 77983692.68 77465287.97 54223023.89 33832432.97 12900357.62 
18750887.05 52499169.41 91289141.21 121364752.9 119480554.9 124175667 132382284.6 124588609.2 125882155.7 131934201.6 116714146.1 129714908.9 116282845.3 135935524.4 140040219.2 119038581.2 122199858.2 142113354.9 123357782.8 135377174.4 127902675.8 114354342.5 121816000.5 127590096.4 113148670.3 114413040.8 131344840.7 133412972.2 127235726.8 123092336.7 119710693.4 125858987.9 123669121.1 115157265.1 123854379.2 131472121 119718182.2 85764699.88 53479899.22 22059675.77 
28907616.18 75071163.33 129968862.2 153092721.7 164150571.6 151660230.2 181948842 191513853.5 167394582.4 174301120.5 168340842.7 167845564.8 184853164.5 163546497.5 178805269.7 180073535.8 170466243 172881817.2 177580497 164220330.4 175371176.2 167020886.6 179603177.6 181372416.1 163080100.7 178571995.2 181379842.6 165320262.8 190562168.9 192219665.1 169721876.4 199510276.4 175388623 175655579.9 171355045.5 149517637.3 155138345.4 126235595.2 67628924.61 21488701.18 
23976889.6 81556773.82 116465425.2 162544922.3 178416748.9 199184742.2 178928650.1 170090024.8 182719018.1 203827727.6 186100339.1 185320509.3 159240859.3 181895547.4 184782271.4 195592378.8 174177917.5 194257079.4 195633495.3 184613891.4 180614910 183228292.3 169749502.3 197817120.3 192697353.9 196196213.7 185759377.6 160958024.7 189590808.3 173103516.7 180139059.7 172858416.1 178985564.1 159704128.1 180779218.5 174994971.9 173130452.1 120408587 65695692.64 19710878.28 
23550953 75336640.93 127374364.2 189122538.4 194218141.5 187550160.2 173850232.3 188531713.1 170811248 171321523.5 165793758.9 197711571.4 180837475.3 190426256.6 186611115.4 177285740.9 191790487.1 199077323.3 186566493.7 179714647.7 180620321.8 182287859.2 186504162.4 194054306.9 183470000.1 188934370.7 184377452.7 180050600 204245976 180405424.6 186193280.9 203261548.6 178876191.9 181846236 181930475.4 184894501.5 179776082.3 139203742.5 78663946.51 26921254.85 
26712767.73 78421233.59 121956619.4 173566643.2 191720884.2 162515082 185802429.7 198852656.9 192288529.4 190938247.4 173542120.5 179221067.5 181333562 179594769.1 167006039.8 170646629.8 180782004.3 185702257.7 181913398.1 178220953.4 180755949.7 169230288 171025696.7 190566520.4 193400723.7 161419166.4 180400720.4 173632830 178196660.4 167994543.6 171526073.3 190894744.3 210778518.7 179998268.5 177456461.1 179682701.5 173027614.2 127580173.7 87965970.4 21036358.99 
28803955.03 84324302.41 116265843.5 165389615.7 183139529 180264346.4 163974239.4 187029211.1 180337954 203070370.9 187598251.9 160191199.3 190538797.1 192581435.6 158448853.5 180063860.5 173258645.2 179027963.8 181415383.1 178251135.4 189949546.5 174796432.2 189184355.6 200367377.9 192113366.9 184667822.5 185016162.3 181046206 176892659.7 191829007.7 200202488.3 171287221.9 186640036.1 176202284.1 177488822.5 186797026.4 168776421.7 123102258.5 64127483.52 27800308.3 
31057944.85 90606211.13 131125029.6 178119934.2 198548959.6 182488826.4 175350659.9 169964373.3 192064539.5 188820777 189643229.5 177953533.5 180907295.5 177590080.4 193782715 180029439.1 171104722.9 188733891.2 184123769.5 186768212.5 176710630.6 188172739.5 182396945.3 166917064.2 186736809.8 183831302.2 168026328.6 176218996.2 184746180.9 177908931 180320529.3 188309816.7 177515860.3 176944633.8 181856111.4 182249077.1 180890051.5 121873869.5 81835229.65 24885390.94 
26940792.6 81596059.81 121153191.6 159640857.3 184891065.8 174699720.6 185741245.3 189914435 176327623.2 188698774.9 184894884.5 183637424.2 158415760.7 178053435.8 180338977.2 188915798.6 182794107.8 169766063.8 168173148.5 191516759.6 177946498.1 194992137.6 167278427.1 185465538 186641779.1 193461502.7 186649049 182648100.1 197316110.1 182829054.1 177108164.2 175926508.7 189711826 168671249.2 181800763.5 177687192.3 177869454.8 125641433.8 76098650.96 26468078.16 
30585646.52 73367436.98 122059052.8 165574487.8 189240433.9 180911273.9 179816814 179393554.7 171247709.8 188766693.7 191141161.9 170564535.6 184169791.1 189247153.8 188396801.4 205291231.6 193875478.4 191743909.4 176630485.2 171888744.9 184266362.7 180368734.8 184869294.9 196040755.8 201419414.2 181104377.8 179249828.6 193660401.2 186885460.8 168501224.1 193763301 172244656.8 180356760.4 188559687.2 170473782.8 154931135.2 166920236.7 138882059.1 80272649.75 29502537.54 
28271731.68 80447911.36 142964141 176614199.5 192392741.4 167483017.1 162977456 184535787.2 187714825.2 176254265.1 181167496.1 190298171 178553804.6 182465449.1 164973969.3 189827706.3 171847262.4 172194255.5 202061137 164691971.6 176714746.4 183611273.5 190588276.7 194227983.4 178957541.1 185238965.8 171583114.5 184671351.7 172066941.9 182718397.3 171707538.9 173020515 188371695.5 181126609.8 188387493 187194284.1 163507055 120571496.7 71673112.34 29225688.17 
34002661.35 65235126.64 133438512.6 182699545.3 191058127.5 190213569 192658133.8 180558422.6 187249686.8 182138717.6 167702577.3 174925812.9 187471643.1 186577866.4 186834067.9 176455866.1 183885536.7 191508612.8 182511651 187933480.5 194719482.5 178411439.7 193023471.4 178025871 188781751.3 189897684.7 187701186.1 168135746.4 187463022 179914840.6 188045779.3 181022828.2 178269725.3 194513172.6 191531116.5 179068248.8 159599329.5 119826918.8 82799927.55 27525046.42 
30969233.06 92227574.64 144017183.8 154861331.1 168436345.9 170848400.6 181284365.7 178957830.7 163717823.3 186615050.8 185482461.5 184095967.3 180348300.1 174477155 178899487.1 188050931.9 194949288.3 174972948.3 177989716.8 185087024.5 175593704.7 193955562.8 183267593.5 196003955.6 185743913.9 195007081.3 191587076.9 166903552.3 188217452.4 178078165.3 183661002.3 155871991.5 179767863.4 184773635.3 166409100.8 184040380.9 163505190 121791653.9 78977895.78 25556383.69 
28220472.68 83750483.16 130237690.7 181477728.3 177006610.1 187877376.4 171611157.9 170628336.6 179854514.6 184875156.6 174529166.6 186034113.6 188556695.9 185012734.6 197421317.4 176946708 199638920.7 190163642.7 172510834.3 179171801.8 171811280.3 173459969.8 174926824.8 205580303.1 191015577.3 196499858 184204541.6 195431057 189051440.7 167512091.3 172191490.7 182400971.7 176885939.2 192694972.7 187725322.5 176098809.2 182872724.3 132982030.5 79381670.19 29181246.89 
35246802.91 75542981.73 132968323.7 178983359 191553422.3 181400898.2 181780924.9 173361105.2 191867173.6 197283929.1 190263442.4 201416834.8 180398792.2 178571362 184960834.1 204825454.9 158756694.1 175601660.2 189409938.4 179099879.5 203162705.9 174901120.3 169056890.3 203393683.6 183210218.3 174842114 183487077 187557507.1 215801034.9 186701831.5 186277122.5 206555119.3 192992184.1 183189030.1 178780533 188792498.6 167414321.4 136435989.7 80772575.11 29377618.09 
29095919.28 71172937.04 125014833.5 180814252.7 190359015.2 186152882.8 198419462.9 180475129.9 180880754.7 177783294.7 171437725.5 182268601.4 194045157.2 186845951.5 195902564 172286084.9 196912474.6 181815412.2 187587061.9 178567215 182667674.2 192502408 187058453.3 174339163.1 196547309.4 159653483.8 179010559.2 185019403.4 188015779.5 178370049 186316693.3 183902328.6 173018913.6 172683339.5 185637659.4 184375776.2 182620067.6 113909059.2 85998006.76 23946758.31 
29225472.85 80205173.45 135169650.6 165133298.7 179116822.2 186121244.2 168371434.2 199527950.2 202813008.7 208668165.4 186950075.9 187372830.3 190566269.4 169585614.6 185482622.4 187181736 192979375.8 190597214.6 193415833.7 185592570.6 198819653.6 182686625.8 194464084.4 181718462.3 184799571.9 190879017.8 185637289.5 195822051.3 181684561.2 193092094 174371689.6 181934660.8 182746341 183267385.5 194198678.6 203108963.7 173127683.9 121697560.7 69694432.78 18070360.97 
25308522.43 89301972.04 129535356.3 176325013.9 188285662.3 171210312.6 192196020.2 166211139.9 191475229.1 177305764.8 187795428.8 171931558.4 175309057.3 155842953.4 188738581.9 177476518.7 155251287 181960897.2 208278446.8 179350625.9 192836977 162165000.3 176386798.4 190955602.7 171634371.4 167010825.6 190970525.3 190817394.8 186517300.5 177513586.6 174693875.5 185088175.8 180223095.3 187008136.7 174257225.9 183446055.3 180417085.7 140884096.8 76910944.74 27448268.76 
36424516.86 84430798.67 117127577.1 169155378.9 182267755.4 197822178.3 175989704.4 178859413.3 174098874.8 191573104.1 184138403.1 161728718.4 187719563.6 190352026.2 178665233.4 184371608.7 187833218.2 174086079 195962797.7 172797563.1 185713757.3 180601261.8 169287291.7 172287057.5 171190065.1 176457084.5 178015396.5 178208796 168658585.6 170261749.1 171814467.2 191303126.5 190488976.7 174818959.3 182071851.8 171493004.8 162761767.3 120645240.6 71225215.86 25814453.88 
24645895.48 87478646.98 121639244.5 189502587.9 188001827 186668168 183512234.4 188235323.6 181603841.1 172820609.5 179708900.3 173567707.9 173749167.1 185853566.8 188268276.4 184320848.6 184150005.7 186705368.4 169834794.5 190961656.9 176954361 186205075.8 169958056.3 186734272.6 186268492 176549174.6 171924489.7 197672665.1 187434397.7 173340616.2 189342567.7 156189562.8 180267924.2 173052935 188161871.2 183391156 159606914 116885258.6 80940552.98 24401001.07 
30995971.18 89033694.33 138090865.6 171563255.5 178786563.1 177159024 190650407.6 184450603.6 184802542.4 176870179.6 168523246.3 171513123.3 174076860.4 180610338 179764971.6 183903730.7 184914508.9 185159678.9 183344382 172157508.9 186507195 178509641.1 176098037.9 194340920.7 173317707.7 181155322.9 183961925.9 170657788.2 182582697.6 207838332.3 174254675.4 170765799.8 170536116.4 202145527.9 168454312.5 186834690.7 160778082.5 117265932.6 81526787.03 23573916.31 
25749675.87 80561377.19 126172882.3 169530739 192258028.6 183026324.7 199584140.9 164849950.4 176213717.7 170978091.5 204664568.5 172029650.8 167736506.7 188908921.9 191596683.6 186054678.5 182133489.7 177370109 174046157.9 186032666.4 171683812.4 180265229.3 176969524.5 178089600.3 174460386.1 182985103.3 168061155.4 179113798.5 184055167.5 199844347.3 176379252.3 182306952.1 170500816.2 193055298 168296532.2 173033981.5 179065532.6 142677454.3 75687485.9 26577179.45 
30797047.85 75253779.38 128177036.5 180341470.8 203717928.7 176501496.1 173172291.1 195880600.1 184904143.3 179315231.7 178441483.4 196433125.8 196444863.4 186264638.3 192909450.9 180865725.3 173646718.5 179548947 180259090.4 187041382.1 194794363.4 170846670.6 170689288 183181041.3 187796436.4 189513720.5 186830175.1 175475992.8 189363490.6 196234113.5 176899023.8 176138043.8 174355109.7 174089481 185494968 196950443.4 181421329.7 120668543.7 86201616.68 22358403.87 
29080740.52 70820485.77 118107393.9 174874977.1 190504657.5 179635112.7 173374968.7 184899520.1 200251134.2 192634346.4 183613237.5 180660505.7 196524569.3 183544766 164164891.9 189096857.9 177614938.2 175875279.7 202711635.2 190905941.7 181037080.7 180192912.5 182034013 190272104.9 191713595.8 174364015.1 184124109.8 177203213.6 185754566.4 168878188.9 175725243.9 184256919.6 181525058.2 168468163.3 193911326 170983613.6 179730808.2 124668166.6 75686331.29 25079731.92 
25070179.95 76206238.16 126366557.3 165446660.4 176872449.2 169298932.3 170560124.4 194409372.6 162070607.6 188670448.4 194026105.4 170635408.1 176178865.9 167157966.2 193208961.4 171235844.8 167356396 191437370.5 182697417.4 179720091.5 165796645.9 177908790.5 184095608.8 172406262.9 193908433.5 175922278 171452313.9 190227090.1 176659478 175497635.8 182324309.2 184206554.5 195436048.1 179494639.2 180604041.6 202057350.6 187879109.8 127868232.6 85277016.53 29423708.43 
27721575.25 74213476.61 147152018.9 176653007.7 195290592.5 194632446.9 181714401.1 175596204.7 184050408.3 175025566.6 172583961.2 191517429.8 190151963.1 190790561.9 186478350.9 169865220.4 213065428.6 187240024 170916449.4 182952625.4 196736115.4 165629644.4 174662912.1 183711524.6 182470078.6 184655740.3 189621905.1 184522700 192739517.6 189598354.6 193668931 183416841.7 196111006.4 181435548.2 191649141 167382845.7 160939902.6 116620276 74531308.37 23950901.2 
30339605.78 81518606.59 128885772.4 172424411.2 176378895.2 170084488.8 174832037.5 203069949.5 170893418.6 171554679.5 182972777.1 200076474.2 183884644.9 186549831.5 181045352.8 166752434.8 182626385.4 193574277 197825077.2 179574030.3 186115520.3 182195695.7 174732851.2 177208036.9 183469914.2 198072028.7 186810070 191997759.3 177309621 170601671.1 173282200.9 183777599.5 179069238.5 176251222.2 183735465.5 191250824.4 170596177.1 122938901.6 72879087.04 29899600.19 
27574206.01 72969756.12 128298834.2 184191410.2 182971106.9 199828189 168187600.1 178888879.2 177959193.7 171107658.2 177188220.6 169781166.3 177644994.1 171716896.7 187069674.6 193090452.5 197488229.5 174782392.8 176264580.7 185107241 188896888.1 169938308.2 173945310.1 172370267.3 179211881.5 176525214.2 169789446.3 190065591.4 179406891.8 179898363.7 182761351.9 172351885.7 183438423.4 178953276.8 188831129.2 171031865 163345000.4 121434668.3 75426173.77 27456129.2 
25601880.83 82498655.86 137582688.7 171281600.8 185621676.9 176850493.2 169501409 182722080 157840663.4 175268391.5 184274961.9 184529309 180743561.1 177162471 180894064.3 173531551.3 191905449.1 167502779.6 180626807.7 170443028.5 192370593.2 186903681.8 194168666.8 174971446 189128986.2 184360899.2 204914822.7 173832687.5 185168185.1 179962884.1 190033561.9 187093119.6 165450138.6 177476251.1 191844264.2 195146456.3 157009477.7 122219067.6 79296136.38 21652146.86 
29902682.93 86572378.39 136126330.7 172916556.5 172727042.1 193252407.6 177387223.7 181246808.2 177801047.9 199449501 183782685.6 190168161.6 172864079.3 171877386.2 168170744.7 190298687.4 166541273.8 162405325.6 190843389.1 171203287.2 173473880.9 184134584.4 158639783.3 176459794.9 183212870.9 174877263.1 187416863 183890799.4 178197460.1 189812516.1 196214613 172801475.5 184295780.3 175303794.9 182476860.7 167635439.3 163751607.2 141261323.2 86705637.82 23985754.34 
26899932.22 89150335.01 147416125.2 162308871.1 177826580.5 188481199.6 185804408.2 187734171.2 188248710.2 175255960.9 175933632.4 174066612 183641173.2 174284049.1 181768262.8 198651173.8 177501062.8 171576159.9 176709422.9 177819058.3 200491301.3 199827047.2 188618162.3 184617796.6 180740947.1 188645089.9 192837656.8 185204274.3 193469629.9 188883566.6 193217030 198125842.1 180162898.2 177879390.3 174905780.5 176784874.7 168054011.3 119651465.7 78754317.83 27139545.7 
30433336.16 88284838.96 126808156.1 177686815.6 189799765.7 165348528 164755482.3 190820753.3 176531072.2 189813155.4 160304550.1 165411776.4 175972215 180320515.9 173729534.8 188467482.5 190061255.8 181292747.4 187432783.3 168375050.5 173046541 179276055.6 197919218.6 163779931.4 202104102.6 177007019.3 183604074.1 189018514.6 181322666.3 174315560.8 182908992.6 182923934.7 190099192 186282806.5 180380244.6 192692199.2 160113267.8 130573974.1 90465200.51 27860099.97 
28601806.68 69046659.39 135976157.7 180519942.5 178874764.6 205902208.6 176049758 178151789.8 192765195.9 176588504.5 180974887.7 187845566.8 179738729.7 196594230.1 196935222.2 190042049.8 187838780.2 161928131.5 186073087.7 184887891.2 180402874.3 182728348.4 190861233.4 171925542 179475251.1 173243237.5 193697475.2 194860567.5 177767712.9 172310268 169989431.1 163457577.4 184254610.2 181135547.1 181123850 177565681.6 178972825.6 117759568.6 81768503.44 23657346.73 
31581060.51 78795518.79 136316975.8 169011534.7 180637473.8 190204372.7 187467359.7 186712114.2 177038967.6 175335802.6 170591750.5 195195327.4 184116774.5 182900554 193223668 181817683.1 188349282.4 181619779.3 191708443.6 186799423.8 169155769.8 172606471.9 195552751.6 178512957.2 178809460.7 188043374.2 185213228.8 192637367.4 176297936.2 170542417.1 189726639.5 190818459 174735862.7 197459197.3 189173645.8 196010564.7 171283957.2 157412688.7 81638099.92 25227034.94 
30360452.17 78150104.35 128585552.9 173020138 194071005.6 168549663.9 178976605.7 175487849.8 193246709.3 166294298.5 196529412.3 182263289.7 159288953 167519462.6 190180553.6 189790993.2 188788455.4 194643406.5 176287951.3 181087729.5 202395569.6 190005649.1 182317202.9 193532959.6 182394058.6 180988184.8 189043172.3 179536680.6 191415188.6 191377565.6 190698756.6 186512966.1 180095298.3 175942739.3 183098137.7 157315597.8 174907863.1 133156986.7 74846228.13 27685351.27 
25557361.27 65289247.1 112559102.7 170452993 170686905.8 180791848.6 160352697 181761073.9 163292716.1 159792037.1 193555897.4 164849324.4 190276200 186210231.3 200030244.9 186156080.2 165394065.6 176824535.6 171209456.2 164734507.6 155553204.3 175156573.8 172800665.3 180143738.1 187616705 173753697.4 177532915.4 168855052.6 183466893.1 175573066.7 172184924.3 170706080.2 172030095.5 185575171.4 150525753.2 170157212.8 162053499.1 124315901.2 76123704.62 23368483.91 
20548733.85 57015752.66 76937375.75 119115306.1 123157122.2 130979784.4 122077310.2 132742841.1 116999706.7 116990606.4 127130345.6 130337871.1 135017674.4 122449304.4 130709204 122105878.3 134870073.4 135741370.8 130886024.5 132873020.3 137705835.6 111804830.1 141472683.8 109793837.1 127959889.2 128805666.3 137489714.3 122197147.8 132244205.7 116298848.2 125257658.4 120186408.1 112355739.7 145332732.5 136222558.7 123358994.8 121716592.1 83832757.31 54238481.93 12540273.03 
12257536.63 38839680.22 63037003.96 74176876.24 77973718.83 72307833.44 75681757.27 75560420.05 83552835.32 74157527.64 72663244.4 71250281.68 69220194.72 79580930.01 75634382.35 85239643.51 78438884.3 73051050.32 73433587.39 60726304.56 81427143.24 66870177.6 82797810.97 75790493.48 77167151.85 86828792.18 83571143.21 67855670.19 73331748.85 71229486.54 74848886.49 69839648.63 76973684.07 89889307.48 84935741.51 69655735.78 66457937.49 57894699.72 37163874.67 12650481.31 
5159831.479 12378021.94 17888933.01 23657629.5 24972090.83 33334142.71 29927350.7 27025520.74 19611539.5 31552801.12 26061012.95 21711818.05 28639318.49 23402673.9 29790722.37 27916136.48 20946161.27 25318956.92 27811967.06 31033288.49 22840710.99 27150974.5 21590681.59 27787140.42 22683943.92 26208741.3 32314159.15 26121417.33 27909967.62 24819898.86 26559250.35 23309400.96 28954574.64 25106004.81 29891120.44 27185196.92 26072753.69 15132211.74 14002241.33 5039542.728 
# Errors [m3/m3_1570817954.hd_vd] I_err:
1386970.475 2669968.222 2868546.402 3256561.317 3291909.56 3225602.454 3619707.612 3575459.821 3245582.558 3245066.083 3627600.358 3338229.536 3626055.335 3086299.934 3625483.942 3708507.793 3806812.751 3710941.326 3082272.237 3511495.972 3735893.324 3396202.815 3641303.556 3827441.976 3727184.631 3028625.768 3615523.833 3562140.797 3873967.653 3516743.301 3320704.112 3878452.789 3710167.247 3613937.886 3608419.07 3451780.092 3710917.128 2954278.651 2356149.136 1152760.59 
1746085.497 3876309.726 5750750.046 6209583.388 6205909.995 6104577.856 5538878.395 6435396.339 6237247.256 6132646.446 5870538.18 5944708.897 5762236.914 6305489.207 5982125.007 5909721.989 5783016.699 5791677.82 5844075.298 5748998.461 5682708.9 6146175.066 6570452.402 6188940.742 5984583.898 6121182.702 5673075.427 6368507.049 5979059.21 5466345.883 5658495.107 5991266.972 6209866.609 5357193.491 6617299.159 6137402.479 6235432.215 5113000.552 3962003.577 2411216.884 
3046934.67 4893384.276 6547863.289 7536035.698 7740526.35 7579248.133 8035627.253 7623624.896 7709029.717 8027589.102 7361147.53 8041155.068 7209691.047 7891096.285 8380972.527 7313051.14 7429832.639 8549279.455 7640211.249 7985401.846 7866126.07 7274610.809 7576097.987 7833948.324 7118662.553 7343784.818 7973161.262 7757032.501 7933123.067 7493604.075 7450217.795 7368337.786 7721924.197 7304780.909 7882061.373 8005752.623 7377954.998 6080917.037 5044075.412 3199678.084 
3973022.918 6151676.122 7745377.355 8569492.943 9013105.673 8019303.45 9404747.607 9649492.854 8789496.25 9159510.706 8899622.629 8785053.657 9560986.577 8638472.244 9493143.996 9284923.333 8981077.915 9164036.574 9000968.93 9040434.378 9153469.143 8848792.45 9269222.749 9513511.945 8544201.904 9273730.632 9509140.985 8805664.495 9778656.561 9807431.504 9057584.365 9763458.869 9127098.131 8966939.557 9004154.921 8374215.627 8413802.312 7732140.801 5721121.029 3258251.562 
3358244.157 6252833.805 7409599.709 8649328.918 8912266.177 9761361.354 9302573.986 9005050.311 9527876.373 10045270.05 9393989.863 9312085.918 8661799.32 9276327.905 9168968.921 9797353.834 9261118.127 9697350.863 9992011.055 9350953.33 9146834.543 9347219.057 8978528.301 9779841.253 9836211.381 9749573.465 9479241.457 8558725.643 9636478.369 9063647.993 9110164.919 9084521.516 9219824.517 8721220.932 9467373.274 9069821.488 9027857.342 7719949.836 5565188.551 2703204.458 
3228173.221 6003120.854 7688858.936 9488652.433 9780925.097 9446250.081 8997893.109 9564115.47 8649162.869 9018678.663 8826860.709 9705574.789 9299610.344 9595964.34 9326417.446 9042389.213 9817249.834 9848753.872 9379197.674 9079065.47 9450077.74 9528971.815 9474983.616 9587333.295 9274729.122 9499597.195 9504855.04 9137830.195 9800603.633 9309347.034 9655007.975 9948575.714 9334542.567 9418175.066 9202173.467 9511910.171 9396288.541 8355018.249 6279540.023 3707223.554 
3392063.24 6015103.808 7651779.386 9057761.201 9689313.083 8915751.433 9316476.146 9937061.449 9795944.322 9715481.702 9236758.135 9487373.021 9231772.432 9061759.807 8664758.662 9146934.204 9090522.347 9469836.005 9442349.192 9254194.827 9240156.138 8922167.105 8996285.887 9596758.273 9610748.807 8611933.706 9291699.647 8974963.896 9330600.69 8547717.732 8904804.436 9623764.65 10332023.23 9274505.965 9138467.266 9261458.284 9212775.524 7686199.873 6689241.115 3272772.997 
3656410.075 6352095.857 7477500.327 8768618.209 9354638.302 9407417.56 8629789.955 9534313.022 9330328.678 9995831.156 9581588.328 8554370.05 9352114.444 9814218.048 8519460.27 9280819.576 9048887.722 9291840.074 9157506.094 9396415.963 9609875.11 8941471.44 9524434.631 9983819.759 9646363.637 9422757.761 9335929.11 9299763.774 9150004.755 9612951.03 9899389.944 8881854.069 9394400.666 9307910.144 9208829.192 9610784.986 8921325.072 7733465.211 5383515.969 3858595.524 
3959785.277 6651473.411 8176366.824 9435865.444 9724855.675 9342931.922 8973876.093 8821310.466 9632810.342 9612963.334 9694939.406 9188143.553 9338274.937 9055413.554 9613592.593 9046147.636 8947100.65 9656086.1 9157132.825 9563667.042 9143415.94 9383078.331 9131168.683 8909579.835 9428979.134 9454474.639 8792880.728 9344000.028 9380364.408 9157320.103 9214782.614 9625108.192 9079680.637 9264018.95 9333872.569 9272789.027 9329856.926 7630323.81 6517937.617 3428742.83 
3485399.51 6154676.654 7524563.478 8383991.951 9544928.869 9146934.321 9214960.927 9428654.512 9004011.721 9562751.931 9429704.48 9135521.547 8371448.986 9330033.066 9121640.226 9588727.512 9206596.86 9051670.449 9163332.909 9706537.189 9113834.865 9717984.976 8760994.149 9403113.731 9372415.654 9779796.85 9466205.252 9419017.215 9942998.192 9454937.271 9213543.183 8957391.394 9348928.375 8826117.766 9277550.439 9373934.385 9305977.803 7578332.576 5953867.258 3498670.944 
3756438.814 5822764.157 7631210.13 8576526.191 9545211.069 9356073.092 9173449.904 8965714.617 8855553.498 9554376.313 9539928.735 8855936.32 9365033.748 9408274.879 9672876.65 10114011.85 9620251.165 9638237.291 9274542.765 8965512.278 9367807.686 9420456.266 9366172.986 10022736.26 10072584.84 9289465.533 9243754.608 9743385.454 9619068.88 9051757.592 9845000.922 9215016.305 9175777.28 9498655.829 9017384.699 8378422.349 8960912.276 8257413.184 6290475.138 3840020.362 
3645050.349 6180090.097 8304967.568 9296776.276 9417144.452 8933560.884 8535737.9 9215411.267 9534213.637 9058974.177 9224645.266 9684264.471 9299396.175 9177122.393 8921263.495 9595155.323 8942630.087 9109817.573 10052046.69 8733153.273 9023368.703 9611717.139 9669298.071 9657501.667 9141837.661 9443166.996 8980920.59 9572958.985 8875273.707 9293183.033 8946567.273 9072355.465 9693952.063 9288727.893 9697216.098 9639453.317 8706292.061 7546739.355 5539573.689 3803363.891 
4106322.39 5582457.296 8003314.232 9483068.766 9559664.136 9596196.899 9504920.994 9395212.335 9442507.841 9439058.579 8720319.566 9010156.484 9595904.171 9515700.13 9525796.12 9160099.765 9385955.775 9617068.691 9427913.963 9481056.257 9796686.008 9318424.634 9703357.617 8941692.532 9411581.14 9598127.133 9648229.914 8811193.6 9432251.008 9116730.546 9555942.574 9365490.069 9150374.088 9976397.359 9741241.413 9338775.042 8589549.624 7253572.078 6114133.804 3755730.414 
3844006.99 6792281.993 8588523.896 8469968.364 8861067.486 8879701.884 9311462.846 9427365.076 8854091.698 9457566.026 9583834.042 9486704.529 9517137.309 8846598.505 9146455.347 9743628.047 9867470.681 8965513.876 9064777.631 9378045.848 9240038.394 9691201.134 9578567.69 9902307.294 9621878.546 9876209.986 9690893.899 8761092.808 9409450.636 9212114.837 9441729.461 8102603.225 9360697.747 9500229.292 8605022.216 9411180.387 8678355.03 7546482.376 6196389.799 3596480.614 
3679778.535 6290696.208 7931225.225 9542773.472 9115667.781 9512844.837 8975522.165 8929042.846 9205252.621 9621280.12 9161691.157 9425646.86 9623559.842 9671241.171 9993298.686 9252294.92 9802001.424 9744039.668 8887670.611 9213448.352 8891272.446 9013934.603 9089346.164 10013927.62 9633985.389 9912750.519 9514731.765 9801194.39 9319321.127 8843057.991 9207029.781 8992046.037 8919089.971 9642482.791 9631690.855 9246733.842 9446049.359 8257054.265 6145829.043 3887612.447 
4289042.718 6096598.77 8070684.924 9228693.751 9497234.083 9204001.074 9529968.872 8882661.231 9574628.246 9882325.79 9847810.928 9652425.735 9156598.634 9207989.312 9446373.05 10128704.09 8671992.693 9071133.991 9437178.454 9222960.515 10154579.56 9298305.56 8892565.217 10134299.32 9332882.221 9069953.623 9362045.684 9467500.378 10274192.18 9365659.588 9531264.696 10203171.97 9649619.611 9273166.635 9290533.252 9250365.386 8821521.509 8274476.136 6217705.211 3729929.335 
3704081.269 6020753.395 7716784.175 9470775.144 9771692.629 9392488.875 9631996.6 9223455.35 9357644.458 9343669.805 8887199.955 9469206.16 9642935.762 9438579.961 9874656.439 8962097.271 9748850.881 9362348.913 9562159.803 9252315.45 9348257.918 9709081.281 9454890.773 9261351.975 9909859.999 8634166.566 9248261.823 9528432.315 9583049.868 9343250.013 9306770.906 9303505.074 9253767.346 9146964.868 9306534.111 9450524.554 9396204.871 7215313.741 6584792.417 3504614.83 
3858225.336 6214925.739 8288151.702 8405621.657 9297278.183 9340135.728 8652421.746 9997216.82 9968526.634 10252769.59 9309880.632 9695856.301 9578921.679 8714262.207 9524237.319 9490648.704 9740732.465 9809674.296 9774293.389 9532158.77 9846275.949 9160583.296 9583094.983 8977418.84 9395233.113 9738024.294 9579621.911 10036357.12 9474432.837 9702402.966 9119666.323 9261442.617 9124610.956 9551055.034 9576920.397 10023185.62 9143596.33 7616268.095 5719466.275 2787970.984 
3354928.328 6535014.916 7810100.773 9013686.214 9559191.818 8964732.263 9737069.603 8616876.864 9608383.676 9016486.481 9279480.716 8984799.911 9152709.882 8366563.721 9436141.62 9447833.656 8353703.718 9218786.568 10227960.34 9369089.676 9874523.453 8666920.04 9040642.895 9475127.808 9036674.006 8961111.459 9946690.904 9747376.586 9524864.022 9247999.712 9189302.633 9440151.106 9388562.037 9733367.588 8996634.007 9463740.642 9323514.713 8351319.885 6153846.303 3466728.288 
4276630.954 6385996.189 7622471.309 8856208.297 9398447.999 9926531.798 8979861.784 9462270.628 8987527.945 9536285.695 9380156.073 8676919.796 9384508.385 9435702.789 9325578.386 9175122.199 9389626.177 9016125.256 9658223.962 8996319.767 9385100.285 9231743.456 9000919.734 8893750.82 8834392.621 9261980.277 8931664.553 9127459.938 8720073.282 8716910.633 9037753.89 9660379.937 9692076.391 9442788.385 9413263.898 8684259.711 8713830.008 7432992.906 5808555.683 3323907.991 
3352526.221 6391487.537 7462837.987 9622439.932 9558572.322 9630817.833 9263395.032 9514934.615 9216005.791 8821578.634 9251358.483 9294904.41 8682294.411 9526539.795 9399968.85 9209574.278 9717177.005 9527628.556 8938110.997 9779932.953 9217555.027 9326311.263 9121071.58 9597009.998 9411402.554 9018916.78 8888174.512 9775003.648 9408187.946 9063124.773 9721996.817 8428104.517 9292031.581 9051339.214 9515343.289 9190819.128 8589381.441 7294719.521 6310704.376 3230676.106 
4138628.336 6558429.387 8141949.548 9039506.275 9360082.383 9003881.875 9640126.165 9457268.795 9535254.09 9340260.139 8914282.451 9124340.886 8934377.722 9453834.039 9364149.25 9171536.908 9444596.69 9617313.488 9561623.761 9065112.231 9615326.787 9566558.038 9337730.413 9812262.916 8966657.969 9362455.532 9420826.577 9070354.11 9268257.456 10199763.05 9038436.349 8858879.596 8778039.457 9806972.176 8763595.844 9476180.406 8822502.515 7494745.429 6388474.484 3312972.01 
3216104.503 6368804.997 7590451.606 8885737.341 9703106.616 9597743.26 10149080.85 8601796.602 9038543.139 8854282.468 10054749.9 9101951.072 9060600.752 9787670.959 9568985.587 9527217.397 9608100.91 9190595.494 9191256.755 9461619.292 9170037.289 9356185.639 9266389.728 9096094.594 9072880.249 9295573.328 9039109.455 9172789.174 9458018.593 10034741.87 9108275.106 9173926.496 8794703.386 9642005.647 8622528.146 9023681.72 9348032.371 8277648.076 6036275.983 3562115.56 
4033419.596 5837160.72 7869441.583 9271257.905 9950146.878 9091329.274 9110548.871 9804487.957 9474279.813 9142852.863 9209902.388 9932239.923 9844812.085 9514546.727 9746112.597 9633738.828 9010460.505 9124531.248 9251361.969 9489257.389 9805388.222 8989891.318 8994099.357 9487892.484 9762066.773 9533353.607 9443705.99 9025148.023 9380240.219 9794362.001 9331167.33 9142191.055 9217446.612 8952723.462 9559497.487 9726725.587 9533740.66 7743019.008 6370775.049 3187547.4 
3714309.3 5920240.834 7587313.071 9101454.909 9495876.88 9304012.794 8868743.963 9441100.268 10116081.57 9537170.045 9235849.259 9305230.188 9896412.108 9605480.883 8539569.228 9633960.837 9182158.595 9153002.68 10072711.1 9789846.819 9223206.241 9326580.064 9440859.594 9302611.896 9658313.19 9100489.046 9519712.195 9031605.637 9445844.625 9037184.976 8997089.721 9344233.999 9204862.038 8678916.816 9731288.681 8919200.525 9347113.861 7810733.892 6169342.84 3591886.538 
3372989.324 6110646.723 7762910.319 8684387.081 9133648.358 9000632.466 9005463.177 9685571.161 8666507.043 9561039.485 9680520.876 8662230.996 9027917.535 9071267.543 9660872.481 8739951.519 8931686.288 9741328.136 9341281.215 9222107.256 8709910.282 9236190.448 9222028.154 8927829.641 9653350.203 9232514.448 8905288.633 9755128.296 9044625.689 9192865.221 9467708.278 9424563.013 9917503.863 9284012.528 9277843.086 9930397.108 9649425.707 7848158.105 6498181.394 3793909.617 
3482381.434 5804163.536 8596639.912 9228807.194 9701438.684 9767019.219 9586285.502 9275713.776 9212631.145 9255634.191 8869572.276 9854940.951 9619073.501 9340847.567 9670740.342 9075232.473 10200591.8 9428470.948 8854486.898 9270894.228 9833182.743 8927262.004 9111209.192 9463790.349 9238571.935 9488703.223 9561990.43 9318159.528 9668157.107 9490352.297 9596375.953 9470664.223 9637109.256 9323320.153 9730745.871 8760322.058 8523999.962 7415627.434 5921618.149 3406690.014 
3727130.253 6354383.195 7774397.537 8960003.384 9129906.534 8962912.383 8954902.436 9962032.135 9056499.799 9167778.044 9285577.285 9991765.857 9052576.267 9510244.392 9168544.837 8832112.033 9259119.583 9857804.283 9760968.898 9266897.319 9473645.78 9424746.773 9252948.808 9227406.598 9419892.473 9849482.454 9067843.998 9660526.003 9295992.903 8664130.823 9115769.586 9268409.597 9248040.151 9148192.354 9371698.579 9759869.836 8846507.906 7291691.455 5691826.424 3870240.639 
3769449.18 5750637.889 7630748.682 9438658.318 9310317.822 9986515.437 9016230.38 9281140.866 9334927.758 9103857.151 9021373.031 8816016.98 9316551.411 8859057.925 9563199.919 9658512.265 10010559.19 9067720.792 8872480.395 9553439.688 9594829.321 8831865.998 9056236.521 8998046.587 9497314.817 9157875.978 9080433.039 9690893.126 9106044.563 9383509.519 9164537.944 9005298.7 9623876.919 9256644.275 9399831.045 9065783.976 8404347.961 7696366.463 5907197.925 3848556.972 
3313765.631 6169297.049 8114937.539 8974797.491 9280868.129 9005520.946 8898748.412 9370529.687 8513235.924 9218503.178 9515229.799 9433071.92 9140464.19 9094611.845 9323204.914 8974477.239 9486399.487 8662788.572 9315662.949 8844432.625 9740058.515 9691808.078 9479127.446 8949648.169 9637116.706 9291246.693 9895739.43 8976311.336 9699246.324 9437422.936 9647207.105 9430975.62 8861979.125 9151142.818 9719201.41 9887122.145 8496922.707 7387851.099 6102711.846 3414741.741 
3821350.765 6443120.008 8161679.754 9171576.601 8851120.116 9616725.163 9059053.69 9219070.705 9066240.67 9947980.606 9323848.177 9572900.176 9003100.774 8854292.218 8909080.607 9547199.55 8759470.199 8560666.731 9662583.7 9094803.018 8987996.849 9387059.953 8669549.46 9050680.024 9605317.859 9081076.092 9655321.904 9277910.582 9227749.172 9561004.765 9683657.94 8959337.952 9473501.776 8893552.064 9402126.359 8577490.889 8704432.325 8541795.014 6466018.016 3387792.478 
3516472.476 6467661.858 8500390.721 8738646.458 9170897.129 9464371.134 9286228.134 9602766.513 9575878.784 8852825.052 9016906.811 9281288.858 9622922.69 9091509.335 9279744.886 9810421.044 9293040.67 8996648.308 9097451.009 8995315.981 9883689.589 10103545.91 9451655.455 9498911.877 9373580.789 9459165.363 9661490.002 9654787.527 9873795.252 9673396.772 9551143.122 9833642.876 9228732.701 9190382.16 8873896.472 9232493.696 8807698.722 7386511.493 6161856.354 3505886.14 
3978002.879 6555741.255 7446197.706 9276989.422 9678229.303 8785237.775 8697495.864 9822594.742 9300312.234 9551282.975 8429657.121 8663930.838 9254526.965 9468716.335 9034265.288 9614840.127 9464832.373 9451281.927 9423930.199 8931347.034 8860864.041 9014670.782 9754862.468 8663919.736 9734521.329 9172881.332 9510730.921 9583206.546 9299214.619 9075715.503 9138856.667 9173573.206 9729787.116 9365495.323 9330950.003 9772737.283 8220188.405 7911409.949 6731593.13 3656614.183 
3664017.175 5606760.025 8280859.951 9155269.757 9099728.079 10174895.85 8970548.534 9306759.395 9458321.848 9117163.892 9151751.818 9610194.223 9212056.872 9839143.083 9907457.396 9438733.741 9557991.404 8637050.681 9526966.265 9291248.767 9361076.531 9436695.283 9583976.949 8896240.708 9472403.067 8972234.054 9767295.06 9666363.064 9322443.509 8878433.553 8885203.24 8866442.583 9466320.192 9323815.063 9253306.176 9313787.396 9111713.362 7612502.132 6427291.315 3336482.351 
3632207.316 6229230.673 8297729.292 8912016.436 9393369.873 9462277.061 9462531.303 9506192.584 9161990.417 9226680.118 8930412.696 10017911.58 9451858.85 9271249.214 9829704.433 9449894.022 9438742.936 9314980.021 9615298.173 9408402.221 8876729.878 8901800.062 9514148.263 9204251.349 9111847.146 9649852.077 9307422.293 9738874.58 9005221.9 8832027.178 9489058.228 9701621.554 9170053.123 9821055.368 9694010.82 9623571.323 9149574.319 8908863.487 6232296.633 3620185.794 
4021802.517 5955719.215 7625839.504 8965209.364 9736462.144 8981207.682 9321260.477 8884952.363 9799655.233 9012771.725 9779291.888 9456420.79 8573686.455 8675828.62 9588825.318 9677948.887 9557133.135 9752828.516 9319772.704 9518387.844 10086493.17 9444736.109 9201850.962 9720071.339 9442562.096 9184307.746 9705048.117 9367196.43 9651805.306 9722099.81 9759950.18 9545018.021 9082866.142 9210384.983 9249835.155 8340433.419 9089404.212 8102545.314 5957972.225 3734429.861 
3397740.187 5467533.118 7267730.468 9027243.957 9122670.605 9278776.943 8543782.637 9472974.25 8602424.029 8649095.089 9648237.63 8962910.982 9646893.489 9565782.115 10093846.18 9476435.69 8722105.988 9555737.417 8941811.909 8719823.182 8411174.625 9355176.487 9154653.603 9338367.407 9552548.358 9016136.215 9381618.015 8808331.106 9605980.888 9152666.723 8992481.213 8928752.101 9042974.812 9720930.044 8587108.532 8929376.652 8746722.175 7882439.853 6009347.252 3395139.244 
3088683.625 5111173.361 5938797.961 7614646.632 7695680.998 7897423.278 7556004.492 7951901.289 7462907.925 7317799.734 7952469.211 8032134.327 8119496.517 7291345.798 7763906.329 7544132.22 8108393.033 8143180.81 7899765.92 7857666.053 8316989.702 6955863.071 8296493.373 7144509.929 8028334.927 7622611.096 8177937.926 7525297.511 7944500.179 7334792.479 7558427.538 7617180.954 7271454.847 8643323.355 8395072.035 7613893.229 7672924.469 6128938.482 5003394.663 2264091.409 
2305306.475 4449537.456 5567194.706 5944812.079 6193028.35 5671191.207 6142725.927 5898685.736 6623628.106 5906269.783 5805755.276 5902455.953 5632358.215 6293373.137 5922662.429 6635323.601 6205129.472 5648289.299 5894582.247 5277230.334 6220866.139 5538609.993 6221102.691 5868240.462 6060335.542 6434678.211 6494085.975 5692652.853 5935376.927 5618939.056 5843567.83 5829842.769 6127586.17 6701318.765 6568882.864 5611387.02 5681952.956 5457127.465 4370041.283 2379677.17 
1645212.56 2423850.806 3170992.454 3114081.275 3586469.877 4036903.868 3812032.004 3560969.659 3070106.242 3884231.767 3406266.852 3064645.355 3775018.665 3229850.784 3795907.026 3846298.763 3040499.309 3566066.483 3503965.809 3896458.405 3184520.269 3436648.652 3046210.099 3442746.343 3327246.898 3467282.746 3988924.664 3459369.053 3824852.122 3552740.677 3713873.12 3354106.569 4036251.571 3416168.932 3746398.745 3645297.463 3390123.709 2748889.163 2558619.204 1774700.323 
# Events [m3/m3_1570817954.hd_vd] N:
20 46 93 99 131 101 110 103 121 116 104 116 126 108 106 120 114 143 82 122 114 110 99 121 142 106 123 108 104 120 98 120 118 115 115 114 110 69 51 11 
53 131 247 321 297 292 317 331 324 334 302 323 295 349 320 325 315 281 301 313 308 325 318 317 327 284 326 315 313 265 288 323 358 313 352 322 298 225 145 59 
74 232 377 513 521 519 527 539 512 538 501 513 508 553 561 529 549 532 513 543 531 492 488 541 497 515 526 548 514 524 521 559 519 530 499 531 505 393 210 84 
111 308 535 644 684 715 738 784 718 726 723 704 724 688 716 758 739 678 754 696 753 699 730 712 716 747 704 710 764 751 719 794 708 769 712 651 682 505 275 96 
109 329 493 710 790 795 745 705 732 779 741 751 674 755 782 776 718 787 756 758 763 754 711 780 748 780 768 704 783 722 759 751 752 690 732 732 720 514 298 101 
103 321 537 775 813 772 760 751 738 717 692 800 760 763 777 755 748 795 784 780 756 745 750 799 770 775 740 734 798 732 746 819 743 775 776 748 702 536 291 102 
117 334 528 705 786 676 782 786 746 783 709 746 761 771 728 704 781 770 744 738 756 725 742 773 764 735 743 726 711 767 712 758 811 734 754 746 709 566 330 83 
120 351 483 702 770 734 696 775 750 802 765 701 811 739 694 742 714 749 774 726 792 738 780 761 752 764 799 730 750 786 787 726 786 699 709 741 734 488 306 112 
132 339 509 704 802 769 756 731 779 754 752 731 720 753 791 754 720 789 765 752 722 780 785 710 766 761 700 739 752 743 757 781 738 733 759 779 742 517 310 98 
115 342 503 695 733 735 788 779 743 787 773 782 725 718 777 768 756 723 715 758 776 774 713 767 758 749 767 715 765 767 746 776 799 736 780 733 747 529 321 115 
127 305 545 746 774 753 765 782 735 768 763 724 778 805 740 791 800 779 751 770 752 722 780 749 789 752 731 783 756 689 789 733 722 753 734 685 674 531 333 113 
114 334 584 710 789 730 739 781 742 731 751 739 753 759 714 773 738 704 791 696 764 713 746 768 749 763 745 746 746 760 722 716 757 747 751 759 699 499 310 112 
126 273 538 726 754 744 793 763 783 746 721 751 751 752 766 725 767 780 730 766 756 714 775 786 784 754 768 723 781 764 747 757 723 736 764 737 673 505 350 104 
123 367 545 649 711 724 768 735 704 789 720 754 687 762 739 777 781 751 748 740 731 784 751 766 748 785 752 733 797 725 749 724 741 742 734 731 709 519 312 98 
112 342 533 715 717 780 723 757 783 728 737 759 768 751 749 701 788 744 754 715 738 775 728 822 799 796 754 770 794 732 709 774 768 765 738 736 744 538 324 115 
126 312 529 732 790 757 744 755 783 802 746 817 739 744 742 783 693 737 774 785 784 739 732 776 721 739 745 749 827 787 735 806 781 754 742 792 679 559 330 121 
119 293 532 718 750 774 797 764 757 730 728 756 781 772 777 728 802 771 745 739 740 734 764 734 805 674 740 736 773 769 768 791 734 730 764 787 718 503 338 98 
114 325 493 738 749 787 734 761 797 807 809 762 809 737 720 741 735 752 776 721 794 761 785 760 770 761 732 752 732 791 718 775 773 742 786 789 710 505 301 87 
108 339 533 754 765 724 766 743 786 728 785 731 728 689 809 713 681 751 778 744 758 688 746 802 718 724 734 783 765 717 705 773 750 704 734 759 735 562 312 117 
128 335 496 731 755 762 756 713 713 774 758 694 767 791 717 782 780 756 810 766 774 745 715 744 763 744 778 719 733 760 723 761 783 704 752 745 684 521 284 112 
113 350 547 736 764 712 770 753 748 732 778 736 773 765 768 794 721 751 733 732 726 779 707 760 762 774 767 788 767 728 773 691 771 748 735 776 694 504 345 112 
122 361 561 716 740 751 759 764 754 720 716 715 725 743 730 818 746 741 731 723 744 716 736 802 726 769 745 729 806 815 726 751 721 839 738 754 677 494 311 101 
122 332 539 734 773 733 753 728 760 726 815 718 693 723 767 778 709 734 722 770 694 752 714 741 725 759 702 731 725 799 735 727 726 786 734 731 728 567 305 114 
121 303 516 723 794 756 737 759 763 777 726 755 789 757 750 718 733 764 761 779 782 735 748 772 741 788 767 737 800 781 716 711 732 757 733 774 749 484 339 99 
119 283 505 726 794 744 755 763 777 800 790 747 765 718 722 715 761 729 771 737 729 735 736 780 730 752 753 742 746 715 776 762 742 747 775 727 709 511 292 95 
104 316 514 738 743 719 725 772 684 786 777 738 742 714 780 736 705 766 729 729 738 758 745 719 781 728 742 751 729 709 762 768 764 743 752 814 754 520 325 114 
115 325 579 700 764 794 737 723 757 713 734 764 782 807 746 710 824 768 750 750 787 707 748 751 751 731 768 771 776 750 787 762 781 755 757 746 705 506 314 91 
116 310 541 731 753 723 780 805 701 723 740 805 739 741 800 702 746 768 789 721 781 740 716 744 758 793 774 780 761 750 729 752 762 735 758 758 731 535 321 129 
106 315 544 728 749 757 693 753 719 715 781 752 723 738 777 762 806 729 760 747 767 734 729 760 731 720 682 756 764 748 780 719 740 718 777 696 717 485 323 106 
117 333 555 733 762 751 731 764 697 724 749 758 750 756 749 759 790 748 750 728 745 757 819 756 787 743 803 732 755 734 781 778 706 736 785 762 676 547 328 84 
125 349 555 715 751 767 744 778 745 768 753 770 743 740 731 776 716 703 768 709 745 750 672 754 759 760 734 757 734 788 823 729 739 762 736 727 700 520 341 96 
121 365 564 683 767 771 780 752 761 745 763 719 735 752 743 808 723 753 755 763 791 768 772 750 750 768 775 747 774 751 794 814 759 734 744 761 725 521 327 116 
111 344 543 712 750 705 730 727 737 795 731 681 726 727 704 791 763 729 741 705 741 797 776 722 793 731 751 747 721 757 760 764 753 755 746 761 743 544 349 111 
116 298 533 766 742 803 737 754 778 742 746 758 726 783 765 817 748 690 773 788 766 774 782 744 742 728 750 793 721 712 745 711 783 739 744 703 748 472 324 104 
139 311 518 703 746 778 779 727 744 703 738 756 735 776 761 717 796 745 774 760 719 730 802 773 749 765 778 732 765 708 795 771 737 765 749 815 706 595 328 100 
107 345 567 714 773 697 715 733 767 674 797 732 699 754 784 754 752 775 743 717 754 781 775 819 729 758 759 748 777 772 740 736 758 732 758 709 702 527 302 114 
102 295 492 685 701 746 698 725 703 690 778 707 738 744 756 731 729 708 728 707 691 706 726 738 739 727 727 725 705 714 711 743 740 717 628 704 700 498 309 97 
78 241 350 483 491 527 509 552 490 495 499 524 570 550 554 519 529 536 507 540 529 510 556 507 495 538 553 533 554 496 541 485 474 550 552 507 486 381 230 68 
54 146 256 324 298 313 334 327 339 326 304 300 297 310 307 329 321 310 290 277 332 308 330 329 334 349 326 291 323 333 310 280 322 358 320 296 280 231 135 52 
23 46 73 100 107 134 122 122 93 121 108 99 113 93 126 106 97 114 131 111 102 117 89 116 94 118 126 107 102 92 112 97 109 115 115 112 111 57 57 18 
