# Format: McCode with text headers
# URL: http://www.mccode.org
# Creator: McStas 2.5 - Dec. 12, 2018
# Instrument: Test_Sources.instr
# Ncount: 1000000
# Trace: no
# Gravitation: no
# Seed: 1570824929
# Directory: Test_Sources/6
# Param: source=7
# Param: Lmin=1
# Param: Lmax=11
# Date: Fri Oct 11 20:19:16 2019 (1570817956)
# type: array_2d(40, 40)
# Source: Test_Sources (Test_Sources.instr)
# component: m2
# position: 0 0 1
# title:  Intensity Position Position Monitor (Square) per bin
# Ncount: 1000000
# filename: m2_1570817955.x_y
# statistics: X0=-0.000142648; dX=0.0285616; Y0=4.88018e-05; dY=0.0285588;
# signal: Min=1.08562e+08; Max=1.75127e+08; Mean=1.39866e+08;
# values: 2.23786e+11 4.21807e+08 999971
# xvar: x 
# yvar: y 
# xlabel: x [m]
# ylabel: y [m]
# zvar: I
# zlabel: Signal per bin
# xylimits: -0.049603 0.0496112 -0.0495885 0.0496006
# variables: I I_err N
# Data [m2/m2_1570817955.x_y] I:
122957348.9 146482051.7 144925526.7 154435354.1 139159756.5 127433208.5 136404222 152651400.6 142039727.9 149633843.9 150552917.5 123185400.2 128255766.7 154506716.5 129027106.9 137082199.7 129645174.2 149035066.8 125945304.5 154007184 144183807.4 146391431.8 123822394.6 123508271.9 139659377.5 136770151.8 138977106.1 122857707.3 133216860.2 136516661.7 146944091.7 134256820.4 120492688.9 142015427 124116110.6 130254085.7 157033501.3 151768612.7 124021026.2 126486223 
124246569.2 126780927.9 150227502.3 126934772.8 145500582.5 135461476.1 151474583.6 138430191.6 137586824.5 124280913.8 158472151.7 127733755.5 135622776.6 132721358.1 140854470.1 142983857 124252829.9 148470802 133950236 140323187.6 142326399.5 142766172 149761499.7 160146559.1 171016681.1 130672242.8 121541864.9 117864416.6 134273052.8 150735951 133294902.5 134478848.6 123311500.4 133389807.5 135880520.4 143830846.5 130499592.1 148307992 124858887.2 124767913.3 
148178199.3 145196364.3 112422553.6 135531830.5 129602779.5 131278382.3 137809177.3 126200887 127515044.5 135112607.4 127515042.9 144588962.4 155408653.9 141037787.2 136199715.8 150204908.9 156855327.6 148846320.6 124257141.1 142359847.8 131800131.1 145877543.4 152357823.8 150937947.1 135480810.2 122008769 124922808 125026804.5 141268039.8 136327391.7 121081195.8 134385467.1 139149919.2 122541283.8 135488007.3 131350853.5 137467677.9 145798960.3 140413440.5 129514902.2 
140974462.7 146643123.9 139084258.3 151969072 133435295.1 145681570.8 132292114.1 145465045.5 160301448.2 139869551 160897887.5 136454420.8 133604129.7 113758719.6 131852800 132779787.5 132508272.5 139378821.3 160422202.4 158729428.3 154009477.6 122690998 151800386.3 129944677.9 139872615 136942009.7 152328720.1 145603124.8 131001664.7 137719667.1 139580292.4 139382340.7 139839198.9 143445248.6 142903214 121093277.5 133553258.5 125412554.3 162711973.7 119031459.2 
127932375.3 149010956.6 156364328.6 135817963.7 121852832.8 136525925.7 140226705.2 140405472.9 126291650 160605899.6 134129437.5 156252456 156137125.9 133366615.5 135976031 144435755.9 125474150.9 146984146.4 141819804.4 142941971.6 150544699.6 139846990.1 135551697.7 163366246.4 152305880.7 125094424.8 134289325.1 126887886.4 142352035 140130301.3 133879256 136573083.6 140586592.9 153653703.9 137304739 118391848 150799508.7 146789372.1 136489425 138928516.7 
129431177.9 147728954.1 134493834.8 130491039.8 149997812.6 144620873.4 137515815.6 150737992.5 143890534.9 142910532.8 144630287.1 152724467.4 131777354.4 131672162.9 149617993.9 138802554.7 152676531.2 141499594.6 144505173.9 145166575.2 131395462.5 133778288.3 145526216.6 124548387.4 135172519.4 130327395.3 127250278.3 131796550.6 134823071.7 163396594.8 136054888.5 130705353.6 130894537.5 139236860.4 113622086.7 137841351.3 134867756.5 114174767.4 144255663.6 147644318.9 
160581585.2 136862176.3 142364744.5 144123505 143928168.8 151656625.5 138730260.4 120598319 147840832.9 136204216.4 156314179.1 128290040.8 137847217.5 147805032.8 132126985.6 146251663 124060098.9 143893024.1 135500858.5 159681035.3 136285039.3 156672466.6 145054686 142098583.6 156590275.3 124424916.9 160572465.1 144221243 153617717.8 140092727.3 140208133.6 121971538.8 138724672.6 156150825.6 146102511.6 126919380.4 142462745.8 146950759 156800996.6 134532212.9 
151747398.2 146133124.6 144268929.7 138049422.8 133510167.9 125570684 135711278.4 156168242.9 150148463 136392985 127979854.2 121640882.5 158214146.3 137676045.6 129876907.8 146095391 143734431.6 122044888.2 148294275.5 135160775.1 138809460.6 142594118.2 143343297 137961374.3 150447335.9 131613414.2 142475915.9 136353722.9 130842273.5 148228206 137302678.6 137774218.5 148013447.1 146287082.7 142399167.1 139862905 138414414.1 166157315.7 142387791.4 142389148.7 
115108607.7 143250197.6 151876790.2 134235510.5 142540653.8 159416456.3 131739821.2 145811030.5 148082317.2 129342732.5 129128923 146206009.7 130201907.7 153407208.3 138373258.9 130475043.7 131331804.9 137181158.4 140310950.8 137563201.9 146486090.4 137203586.5 164230473.6 133485380.6 138350560 133757680.6 128009046.4 135609508.5 162078799.3 151221263.9 154586821.2 125842148.3 129919411.1 130164342.1 141003249 140178859.7 137696051.5 135719836.4 144063911.6 143233056.8 
132949707.5 125107345.1 125836720.3 143323590.6 168643017.6 134838420.9 140048287.2 149863045.1 156088345.4 127256098.3 163227386.4 151682685.7 146259266.5 140649853.3 124344854.1 144627772.6 145987303.5 140771476.6 126086331.7 134023638.5 143736582 126804747.7 129234199 152268117.6 130416801.6 132252380.9 140092945.5 161304168.5 151706637.2 137238503.7 129241593.4 127620418.7 161357978.5 135670302.8 147539234.3 131339089.5 127083041.9 149601025 124050898.1 131697147 
142397431.5 147397177 150003997.3 154279721.7 115742000.1 146624183.6 124993406.1 141399768.8 137852657 155954606.8 163051091.3 141637507 142373843.9 147326124.1 125758044.6 147864743.6 157999422.3 152082192 129078088.6 141034607.6 148343361.8 138468784.9 134561198.9 139986226.1 151372922.8 127589594 145831177.6 127756209.8 136316232.1 146857095.9 149769791.7 129297958.3 124356231.3 133223637.3 139091012.3 137062177 141318585.6 127890038.7 134511472.5 113435097.7 
131414444.4 148057926.2 150712052.6 133822553.9 127419544.6 136354547 123540035 139455128.3 144796561.3 139965664.7 152182567 138329423.4 168152864 136236507.5 135990684.6 130786991.9 158110011 134863753.2 126015365.9 132377942.5 155097917.3 148036446.3 152187723.6 137060964.2 146205360.2 149767559.1 146919211.7 130660500.3 132687919.6 139183394.3 135296997.6 143346549.2 123908986.4 158768164.9 145044626.6 150437160.9 141790002.1 121685479.8 144742841.9 126143071.4 
128163894.1 110222269.9 147658732.2 135578192 138862663.4 130008763.3 130561430.6 157114639.6 140722499.8 150159941.9 139050560.1 132606647 150445385.9 134847975.4 150986420.7 146468701.8 121171118.9 145926925.6 156066015.6 145526221.7 138590932.4 163029824 129638748.7 157707986.2 132984719.6 143244495.8 147198507.5 125586464.4 146215541.7 121546979.6 153267883.4 126583786.3 136213800.5 136914508.8 146016883.1 152838985.2 141392112.5 127792986.3 139462783.5 128964358.5 
141613072.3 139662655.6 162368361.6 139703610.8 125029599.7 131273110.1 145532383.2 143562825.5 153213502.1 133738452.8 127787435.6 137634978.3 147487490.6 143237939.3 159424753.2 149012810.4 151372467.8 136302525.7 147615900.3 134522480.5 121701113 141303379 140138465.1 129762134.1 140220495 145448871.6 148856385 175126922 159753494.3 145372173.5 129711355.3 117594991.8 143986766.6 129358902.3 135981741.4 153319424.1 146300338.9 130380732.9 138079057.1 141052834.3 
129759892.4 150354797.5 155897237.8 141315407.2 120098695.2 143250527.8 125560470 121416240.3 127860977.3 150992051 147490353.8 136560911.2 148851695.7 134156529.6 141952285.4 134502680.6 153554172.4 144013114.1 153399495.6 155182358.8 148608138.3 133656537.2 134595229.8 129292773.9 134983543.3 135669666.5 136102638.8 121995219.4 147618993.5 132750412.5 152142399.2 149789500.8 157021403 138298143.6 132030458.4 134428348.3 128827252.4 129502947.5 149532010.8 126029139.9 
129943186.3 136934843.3 148509531.1 145145203 153356285.3 153478455.6 135138620.9 132190188 138017637.8 136339509.2 143062623.8 142893794.1 126366108.4 156622025.2 143297042.2 146067238.1 126047253.5 139181621.8 127314995.2 137457978.1 135097421.1 141289485.8 132989587.3 157847155.5 144701642.1 149793190.3 139192368.5 123802749.1 138275692.4 137077640.6 149264430.8 141563889.7 131993887.8 155231761.6 141075122.4 141411684.5 130203570.4 152284923.4 121658600.7 152925317.3 
120649925 139903399 136090523 133173022.9 135132484.6 136288106.8 147653628.8 145449963.7 142889343.1 135110746.1 147583974.3 130691497.9 133506353.4 136429819.3 130442836.7 144089411.6 142949772.7 130662856.9 152713852.3 130508949.6 144323737.5 138881599.7 149350062.6 150893207.2 143930281.7 133333314.2 130660149.4 126243532.9 130399754 143460001.4 128977211.3 143090391.6 125881368.9 131492855.6 122490234.5 130505519.1 146084114.3 144588271.7 130075560.1 131708508.7 
148282085.4 144996780.6 144287196 147474622.4 139404439 158120010.4 145739975.7 149553242.7 129737266.7 135754163.1 125531506.1 156238683 125055507.6 132056232.2 134736282 128955910.8 159210962.3 142601850.5 140527597.7 156148222.7 140234974 133085700.9 146074108.9 142248557.2 149358107.2 135098859.1 140595745.8 142121460.8 153063509.7 137692923.9 137184824.8 129215504.5 138034963.1 131052174.1 144811185.8 137699148.8 132462700.4 134744875.3 141098324.1 133590647.9 
145036500.4 141047470.5 134277025.9 131579224.9 142258694 147100011.6 141987444.8 146863955.3 131301408.1 153029444.7 141424037.8 122063362 122582536.2 151931909.8 122303854.7 146154029.4 126270271.4 137799854.8 146239978.1 150814557 143369517.8 131944636 144998644.3 129479963.8 128634720.7 142640290 142783818.6 161802743.8 129817996.2 131734601.1 143135080.7 154201193.5 156749965.4 135496119.4 156548591.2 140756781 152397221 126353605.8 137213663.4 125065752.3 
132024997.4 136651589.9 146286789.2 143207612.1 145060252.3 145350594.9 156620492.1 143776502 129427430.4 130858451.6 131479049.9 134967379.3 128977023.8 138983127.7 144271920.8 141615966.5 128484940.3 139732575.6 123073471.4 145788181.8 146899867.5 151929597.5 139154562.5 135378144 148280964.1 135680911.3 141308865.3 141869418.4 148018508.4 136537030.4 127306607.9 133364816.7 132186093.9 140981966.9 137259416.3 149386039.3 131231688.2 139462445.1 137357027.2 131525770.5 
132712770.8 137881604.3 149561994.5 152824498.3 131139358.7 134063212.4 137902845.8 124494337.4 135613271.5 139446096 144001528.8 145101819.5 116534667.3 147968669.4 140062219.8 164066556.4 137844129.1 157392645.2 141056979 150683191.7 129389371.1 132832810.9 152699117.9 136337344.1 127342417.3 138300771.7 146502805.3 141326232.6 141357851.1 155467233.1 159410291.1 142666118.2 126329329.5 138996976.9 136800845.6 114601550.2 150541745.4 146138880.5 126352891.4 147067636.7 
134676136.2 141825357.6 119946095.7 135840214.7 134849274.6 153264742.8 143936268.6 142681801.5 160210873.1 147336545.9 148039364.8 137718425.6 145182420.8 123901357.2 124271645.8 132840559.9 144495157.4 134656999.1 132747501.8 138493015.8 129637117.8 148539028.7 127772818.1 144408020 141666113 147436196.8 143904177.8 137959453.5 153931307.5 132767003.9 163781502.8 142280095.4 150498102 150574741.7 130581139.5 146801475.2 149926766.1 150018453.7 145418579.8 145932186.1 
124871556.6 128154794.1 141443907.3 141256360.6 136531095.6 127340256.1 159825961.7 145500436.4 144358484.7 147990772.4 143024850.6 133757167.6 141852335.8 146514402 143106405.1 142901698 149023768.4 146211568.4 141676121 142563888.3 131448074.2 126506417.4 141805888.5 115863476.2 150132445.7 141764969.9 154329199.5 147320965.8 140844868.3 126130070.3 109242261.1 131245216.8 142825639.9 137782808.2 146382166.2 131985948.6 147868457.5 133975276.1 152849757.2 130742828.7 
141705263.8 144569727.5 131387702.9 149678225.9 137043296.2 136601038.3 158154869.3 138090125.3 142542222.4 129536089.2 162216595 137505781.9 138949560.3 144999130.7 144843575.7 127379084.7 124830813.1 136288241.2 162448294.8 135761424.7 146054989 142509040.2 144375936.5 128299289.3 145613105.8 142509130.1 129119307.2 142105630.4 132170255.5 136738083.6 130741504.3 148519303.9 134370819.7 138866345.3 139790245.5 146420691.8 148070710.6 141155103.4 135712837.7 133697628.4 
137141436.3 136577137.3 141244789.2 139540911.6 146206972.4 138898540.2 151186471.5 143683831.6 128490926.2 137827621.1 151782898 141765858.2 143886510.2 146759057.8 130364761.4 131911456.9 125821117.8 133498142.9 133012671.4 133885787.4 152389233.2 150431867.6 142159546.7 144995269.1 150053878.2 133193530.9 150170692.9 152140081.7 172784096.7 142573078.3 141694152.3 130771237.9 142081460.9 117403955.3 138714880.6 149607490.8 124324073.4 143306836.6 136597910 134143770.4 
133156153.3 141428185.7 148705575.8 146886154.5 128324928.5 141263121.6 125682940.4 128448023.3 145815477.7 137474383.8 143952286.3 162752904.7 142388693.4 153012787 118328186.8 160345968.6 133973828.5 138823323.7 135753662.5 161191336.2 121599625.6 139723313.1 137835046.2 142531545 140070454.4 125113857.3 134904450.7 145748456.1 134267074.6 149496543.1 156283280.3 138793434.7 132814660.6 143481591.1 144579397.8 143143168.7 139549944.5 130523210.4 150189438.2 119263997.3 
139647885.8 127227189.9 147787746.4 119766185.8 136703118.6 137712643.8 125168279.8 166661033.2 145023676.3 131347783 140536470.7 146977227.1 130251313.9 133656001.6 139129147.9 156929278.4 155057921.2 144235836.6 146236362.9 138857707 138114674.9 147069359.3 118602437.9 139455363.1 123427723.1 127864989.2 152558231.1 149094692.6 143583034.8 170398622.8 117643720.7 130067978.6 150280339.3 145139043.1 174172933.9 139127479 141937972.3 143179046.6 130492158.4 136207359.8 
126058400.6 160268300.3 142328598 164787088.8 124922579.5 151632998.8 143040534.5 139876240.2 161186771.5 159870326.9 139168399.6 151051872.5 149642951.2 148435838.8 151021474.7 131533586.5 159231264.9 142129209.8 152015893.6 153470725.3 112895712.1 134020341.4 134315385.8 132679967.1 163467188.2 149943680.5 127084606.8 134869797.5 164794313.3 138794376.4 147933804.2 117808600.6 144398013.8 128683178.8 128363428.9 125036147.1 119420405.5 141913615.6 119588761.8 136647952.3 
146062993.6 129744472.8 144582407.5 158971051.8 151107503.8 151823718.9 134240283.8 137749419 146655473.5 144073349.4 139878001.2 135872206.2 138210609.2 148494357.1 132277852.6 143830478 125174487.5 135775257.2 149371708.1 152853776.9 152357854.3 141250821.7 148664055.2 137166456.9 130510698.4 136626337.1 138401146.1 161592588.5 133789974.1 134066459 147508836.3 146119062.9 135397217.8 145381598.9 138907231.4 146223897.9 126260897.4 128751364.3 129984940.4 109712844.5 
148984162.5 152617924 130185819.5 141100695.4 151158068.3 135291653.3 145823864.3 140797900.8 129741500.4 167789267.4 131811639.7 134807856.6 146925668 157991669.8 152540768.8 148925879.7 140106276.2 151772640.2 138511859 130268455.3 165725713 131315691.6 126895905.3 128131975 136027438.3 137541755.2 152961537.2 140313576.5 154356522.3 152315841.4 135858537.1 143453662.5 143278459.9 145227629.1 145671009.4 124668772.4 130968922.5 144168415.4 132629690.5 134713678 
140739753.4 146427821.4 165660063.7 150159494.1 148248436 139085697.5 131269326.4 148322959 151695518.4 136109301.3 148329630 132399536.8 139407428.7 146990021.3 167979398.3 142556304.6 145379851.3 132654745.2 116131470 166633510.8 129491425 145387413.4 144304522.2 124194281.3 136011714.5 148621381.7 135564871.4 147552541.4 137880688.9 141602946.5 145952880.3 138821614.3 137005559.9 133501548.3 130399556.5 150559264.3 151255878 150237665.7 143541648.8 116761376.6 
138756655.4 144535921.2 135103625.9 153040505.1 136679338.4 156588343.3 118916542.9 151235845.5 148952408.6 133043244.6 127874680.3 146850788.5 143939427.2 134116160.3 162684110.7 142638539.6 155028339.1 140753807.8 141693704.7 144896170.3 138859580.1 135260728.4 138147108 156705200 129099281.3 133937734.2 143997355.1 135764299.8 134927699.9 139869072.4 170306563 136001040.5 138034384.6 140197139 135262309.8 153078409.8 145272856.2 134828626.3 136892248.1 127113979.6 
139735157.4 154167330.9 132013492.9 152989562.8 146069490.5 153161988 138151428.3 131126686.6 144281338.2 148129425.8 145401963 152104889 132789899.2 134753549.3 134048947.8 140427708 151591311.6 126348031.6 144552640.1 129796236.5 143263114.7 131942716.8 135066210.5 155927568.4 124129630.3 128315326.4 142227949.7 139009506.3 137522870.1 134771271.4 150641680.6 133852399.2 130429254.6 137420141.5 152989248.5 149558157.3 141661198.7 159057786.7 115768517.1 145191425 
158310370.6 152433826.3 135977961.1 132347647 143172438.8 143162283.1 133818638.1 142797669.4 119741265 146718505.9 134821978.1 150057977.8 140753274.8 162903355 152273554.6 136545235.7 162168837.9 128036436.8 130706567.6 108561742.8 144099671.4 131883669.8 156299496.9 134781902.4 151392416.7 138536488.3 132165528.6 154203849.5 145681669 141227041.6 129267416.6 146633351.4 146603637.2 150448586.4 135362410.9 124679094 152607948.5 159906835.5 138230310.9 143642411.4 
119929710 152853232 124089206.9 128660880.6 129390370.5 140694101.7 143689218.7 139319052.8 122086900.5 143314849.9 142733982 132490541 133019254.2 128053921.1 153042810.9 171046009.3 119654965.9 138257537.4 160116304.8 142717362.4 128848763 133210289.4 156711933.2 124428856.3 145960180.6 148978889.5 125421468.4 147296719.2 144868387 148019444.9 139154489.6 129750269.9 157851683.3 147093393.8 132129037.9 138496239.6 141583076.9 138380003.1 143403063.4 140552429.6 
127756302 162142388.4 134544386 135787469.8 150485868 132258369.4 128295495.2 152032466.6 156542529.5 134297724.3 133117243.3 129872046 128769012.5 132801417 134748695.5 155227152.8 124582644.1 140043411 149028574.6 135099217.3 129127717.7 141776248.7 128455718.7 144577301.5 138561965.7 132260724.1 133303348.1 142932771.7 153082275.6 139237150 148683724.6 127029423.2 132990784.8 127968957.2 144805751.8 130837324 140843788.3 126593363.1 124550565.6 137493361.9 
137688857.4 151557858.3 145607423.9 127474920.8 142412002.2 136442335.6 122755996 140611517.4 155284347.5 138120623.1 163041263.3 147728403.5 153770779.8 112486053.1 152960108.5 142049422.7 142070060.1 144959994.2 137967136.8 143427126.6 140173387.3 143792594 146958715.4 132237435.3 138046014.8 148767320.9 171024642.7 135500322.6 142327099.5 139182730 118878032.1 143792523.8 134754630.6 135694893.9 162843011.5 142191958.6 163854359.4 148112200.4 145940155.6 124096199.8 
148767873 118808478.7 129738793.4 143386117.2 116269332.6 147551835 154294441.5 138950508.5 128211267.6 142021797.5 150821052.3 148102190.4 135369333.1 131048600.8 141430268.2 147966143.8 139925072.7 143684159.8 148341614 132737238.5 143799353.6 129256837.8 134001311.1 130006821.5 133500888.2 125661899.3 149489789.3 143091686.2 145740922.7 135481237.8 125449032 138150370.2 150343136.5 134226676.7 142038017 134547071.3 143920886.7 135817629.1 143871295.2 131561029.2 
146360618.3 153927354.5 140832450.8 116037683 126828346.1 149724929.9 157601919 123670057.4 136871668.5 156249268.8 120850845.6 133309861.6 136388451 143291263.7 139802574.7 134436686.3 146581404.3 114698208.7 144549215.4 129584471.2 142235840 135197623.7 128192771.3 145062048 128274390.6 126608996.8 144095304 132101221.1 135475743.8 130715251.6 139901290.8 141232597.8 144415227 146747022.7 141214736.8 122610108.5 158900406.9 121504112 141157358.9 131266932 
122983941.8 118591259.5 141323433.5 129559190.1 140503104.5 151571173.3 153060552.3 136100496.4 140122624.7 141279143.7 125183723.1 145142482 133634601.8 117436639.5 132258893.3 136777801.1 149252227.3 132289920.5 152947154.8 129176131.1 136581162.5 152608009.4 135089737.7 163558768 118925693 121442838.5 125320185.5 154305672.7 147496925.9 111302367.9 127641894.4 134562166.3 138173160.3 134912935.6 136061860.5 138412635.9 144591863.3 140859203.4 138087417.1 135946592 
# Errors [m2/m2_1570817955.x_y] I_err:
9301990.991 10578340.89 10944203.37 11457922.63 10843533.98 9760991.495 10569319.95 11403111.21 10485015.09 10829502.86 11253229.54 9632239.72 10179167.06 11624059.96 10045647.39 10201909.54 10156845.98 11684260.32 10058063.17 11293868.17 10929328.04 10718361.71 9808153.494 9570168.492 10578460.6 10579182.48 10551420.36 10032910.31 10094382.44 10563780.24 10948323.78 9980695.809 9578199.013 10578862.77 9568359.122 10132066.45 11561283.44 11208810.46 9467604.83 9945736.5 
9453319.868 10061149.68 11340472.6 9466212.391 11130764.34 10605238.55 11346168.2 10330613.03 10347333.43 9854085.951 11687330.18 9989706.341 10231962.88 10172594.45 10606824.63 10656106.74 10009855.33 11271206.59 10296785.37 10702867.59 10914317.7 10557033.78 11232389.84 11553722.75 12296403.38 9683950.69 10047044.55 9238845.029 10112037.67 11195723.34 10264811.97 10329154.13 9517982.038 10173981.65 10093967.06 10843510.56 9799515.45 11174381.66 10021762.07 10089261.8 
11242363.95 10874762.74 9033651.324 10686755.45 10217220.48 9989636.13 10359908.86 9633134.473 9803235.417 9803854.301 9573351.35 10803753.72 11590393.57 10501023.64 10164994.09 11490293.55 11394042.72 11233559.94 9509312.328 10986920.53 10080576.65 10674779.24 10820362.86 11054537.99 10158636.07 9506143.028 9850083.189 9782253.443 10543403.89 10015472.3 9538717.897 10261155.09 10614019.29 9535583.116 10467252.69 9947418.297 10191234.03 10846649.84 10516223.93 9558260.186 
10722676.72 10602916.01 10371282.08 10917985.08 9883784.268 10920504.84 9983552.566 10802110.96 11657334.03 10888763.19 11290630.48 10327998.83 9798411.859 8846385.541 10488374.2 9893322.16 10192437.6 10723384.69 11556362.2 11470088.12 10937725.92 9867199.414 11281961.07 9783553.705 10588999.95 10805488.36 11078731.25 10875403.1 10455446.35 10287990.5 10294746.62 10459466.1 10381952.22 10747969.91 11138810.93 9503673.397 10088592.41 9676641.364 11973628.6 9329037.512 
9722559.821 10976947.47 11438831.96 10166882.94 9641119.659 10460590.52 10352002.6 10251117.06 9487810.402 11964565.56 10145856.52 11279162.68 11602025.62 9988677.527 10426034.52 10901370.1 9576527.404 11080682.35 10953699.01 10903913.12 11499317.59 10097128.32 10409873.01 12101046.48 10966003.89 9371532.966 10661721.14 9552836.806 10540142.07 10428362.46 9924266.923 10197343.91 10501164.45 11148381.75 10592233.31 9570042.113 11384218.35 10935223.79 10166984.32 10689736.34 
10344647.06 10106742.53 10613495.59 9712282.259 11153407.87 10550198.8 10314497.5 11126401.42 10813518.76 10393611.46 10627935.87 11346089.51 9911299.799 10349876.05 11199253.47 10135581.65 11135818.49 10175512.57 10877465.18 10716700.25 10608279.96 10277938.16 10942481.27 9196639.598 10575248.62 10089874.78 9875923.392 9393240.709 10605452.1 11675095.6 10322859.74 10415805.91 10200455.64 10314842.01 8872530.505 10637310.18 10140575.09 9129511.482 10704432.14 11100003.99 
11653060.43 10549813.4 10761348.61 10652045.75 10386621.07 10570010.15 10510475.25 9784972.095 10806220.79 10268528.56 11226421.44 9549402.392 11052856 10886977.55 10410364.43 11004029.44 9325704.723 10785724.83 10565344.8 11193719.37 10139194.97 11166860.7 10790505.77 10388911.4 11330764.8 9812443.792 11553941.86 10711940.14 10960296.43 10656627.53 10244120.04 9707692.615 10879167.66 11672468.01 10762655.19 10227795.17 10409865.25 10898255.07 11189881.84 10241287.08 
11068015.09 10936531.07 11266110.15 10618467.91 10233925.04 9532445.147 10294152.5 11605144.84 11180194.09 10542972.92 9852352.15 9383069.263 11567556.54 10182341.01 10033961.11 10699033.49 10924767.31 9245533.4 11188591.57 10066635.87 10576253.39 10628903.71 10828701.69 10401983 11064932.85 10110993.26 10900493.7 10090765.74 10083511.73 11362638.7 10419122.24 10445590.1 11257348.67 10888040.32 10842966.09 10363464.23 10045047.36 11877853.02 10623272.58 10782816.42 
9023690.094 10671872.92 10951483.67 10143673.78 10497322.88 11670875 10098798.1 11152122.7 11378716.99 10084234.75 9987108.997 10795890.28 9986692.57 11314279.65 10211312.12 9975114.255 10184322.63 9858544.343 10208362.04 10778832.16 10642820.36 9873456.864 11300194.67 10025849.66 10697629.19 10288931.73 10047435.57 10427565.72 11344213.37 11233907.84 11315740.23 9501240.603 10134619.2 10020840.37 10579156.22 10405457.05 10696778.56 10822822.62 10089418.83 10976313.78 
10664084.22 9912153.59 9806049.126 10696706.33 12007001.18 10489650.85 10262145.38 10756763.73 11533279.06 9629791.746 11602730.75 11122069.62 11353823.48 10503949.78 9577314.744 10746676.98 10401700.11 10524331.46 9732453.659 10477203.38 10417535.35 10137461.7 10271162 10810188.75 10200926.42 10610822.23 10392416.37 11549141.33 11267761.12 10466572.03 10037771.21 9832132.232 11967449.4 10261544.65 10856561.86 9976164.151 10020716.02 11092771.58 9872770.834 10376841.78 
10782161 11394044.77 11307728.67 11313680.35 9237164.925 11200239.43 9874888.24 10556336.29 10239765.58 11686992.42 11847598.83 10534195.43 10571201.43 10651451.34 9934705.79 11012752.53 11434324.06 11557773.22 9875922.622 10370295.47 11241321.55 10530667.79 9723584.448 10618637.29 11277800.83 9953214.886 11319831.39 9798712.422 10533097.99 11429243.34 10542348.39 9959123.941 9492661.148 10042465.43 10126914.46 10219059.85 10673668.59 9682883.193 10336427.5 9332795.135 
9812325.21 10893793.19 10662020.12 10124767.4 9593866.92 10418916.14 9547541.569 10453423.28 11209580.87 10539420.52 11291941.67 10622179.73 12018187.98 10475950.7 10095165.58 9897103.838 11690071.98 10409153.98 9830078.715 10108616.39 11644079.09 11142588.17 11094534.45 10469821.95 11198466.28 10762980.52 11153847.42 10263711.21 10361727 9720875.553 9895715.799 10679257.65 9757794.383 11421377.95 10524556.2 11520042.4 10665384.78 9922299.529 10466104.51 10224920.95 
10014686.47 8734281.709 10975302.31 10323355.72 10401482.65 9893380.675 10603331.36 11986338.26 10732931.47 10799529.88 10645383.68 9672766.032 11294950.56 9975075.475 11356605.02 10983891.54 9605929.871 10736585.24 11424497.51 10395855.88 10523268.03 11873207.5 9965018.662 11423344.61 9753933.329 10782993.22 10924907.46 9588314.998 10816286.94 9716436.637 11222839.13 9793172.314 10669752.08 10161725.72 10874237.85 11202447.08 10095062.49 10303463.27 10465085.49 10064341.08 
10648831.85 10715320.09 11542902.43 10631109.88 9397494.548 10026902.94 11227206.45 11014790.23 11638809.14 10409823.23 10318324.95 10691836.45 10958518.58 10178589.91 11295629.82 10865972.67 10855720.99 10159504.68 10744697.1 10715219.99 9701808.634 10825232.61 10566234.42 10172935.31 10299825.27 10850364.76 11105251.75 12363545.05 11802346.16 10661949.05 9922610.931 9402502.056 10786978.68 9904468.649 10230729.77 11061186 10836462.52 9997664.388 10726684.85 10996236.12 
10089568.62 10888182.89 11442288.22 10639297.44 9203518.967 10554840.65 9804485 9657534.397 10062788.54 11078278.87 10594045.41 10227868.21 11329716.11 10422859.41 10731246.69 10317713.43 11315219.09 10941227.47 11360122.47 11640678.6 10621095.6 10322496.02 10522398.54 9530273.193 10149153.9 10209882.79 10477747.25 9578314.491 10843536.1 10577374.81 11287466.73 11381805.9 11588272.97 10407336.45 9926895.501 10241459.5 9971354.881 9846864.58 10676407.93 9890187.862 
10081796.99 10092279.62 11000783.95 10413383.27 11228318.72 11566934.4 10231443.04 10453896.49 10373173.63 10626603.54 10790206.52 10781962.42 9571709.829 11676248.46 10554174.55 10823930.97 9553318.084 10422842.44 9679007.785 10302450.93 10244806.43 10212759.19 10601261.08 11450112.99 10960380.17 10628072.83 10376498.37 9704497.277 10323738.49 10483225.65 10992863.61 10652747.52 9871907.152 11524711.59 10573287.44 10357319.54 9860609.411 10945432.78 9800712.136 11436418.54 
9287305.758 10867068.05 9891425.546 10121038.47 10420457.69 9918884.628 10679998.18 11119575.69 10949557.14 10372918.21 11248985.85 10111899.79 10155578.58 10212292.01 10440414.15 10799437.9 11247145.13 10579500.24 11259655.97 10005240.29 10784290.64 10346946.38 10629560.63 11054887.33 10914201.62 10039795.18 9991626.594 9952372.325 9506807.602 10717565.67 9780068.838 10637909.44 10226378.2 9838942.791 9506282.987 9993507.754 11141295.48 11091335.89 9812515.741 10083935.84 
10787851.43 10705247.86 10810043.69 11005486.99 10669365.74 11669643.11 11130816.47 10891389.03 10224459.05 10350774.09 9499466.806 11511615.76 9578164.796 10628026.9 10141460.29 9950046.653 11734888.17 10698133.72 10859317.81 11428424.34 10807046.12 9530895.52 10993652.5 10956030.53 11413107.27 9898987.64 10504718.18 10307621.89 10966006.54 10194638.58 10583001.35 9685543.053 10858300.39 9951825.408 11072387.34 10304275.94 9737236.997 10113092.23 10850248.01 9983232.986 
10704533.39 10248702.14 10228288.76 10185550.25 10519084.37 11035989.77 10603739.43 11142318.28 10284941.19 11130917.76 10417698.16 9555159.807 9664166.788 10963366.42 9673863.277 11252593.65 9931295.848 10057339.96 10678767.94 11312755.66 10926924.94 10081139.13 10881652.61 9970621.602 9800227.694 10750304.53 10336877.58 11894646.17 10136366.01 10075608.67 10335781.91 11719571.93 11718208 10180833.47 11695458.79 10406430.65 11028316.42 10138487.77 10795824.4 9731507.763 
10121507.71 10298696.08 10708446.82 10629691.63 10613350.99 10582859.53 11067961.27 10645218.98 10055590.77 10205089.36 10298271.03 10511386.75 10026057.48 10213865.78 10874355.18 10560544.24 9800888.789 10617499.47 9601936.257 10628583.59 10735177.49 11021359.44 10294275.54 10441992 11331293.43 10166231.11 10388671.83 10713426.55 11190817.22 10313257.63 9995287.126 10051265.22 10240747.94 10472227.74 10579190.87 11200666.53 10107895.13 11046546.37 10144039.57 10194223.56 
10429756.95 10753385.23 11532224.58 11511072.88 9987745.444 10135653.96 10356840.12 9569670.759 10226744.62 10476795.97 10920727.35 10767455.28 8826388.972 11486727.15 10769310.35 11762743.57 10265440.8 11307183.75 10313271.93 11254429.96 10137079.69 10600497.52 11281223.34 9963894.54 9972535.391 10320019.69 11316054.95 10435398.14 10415952.58 11364852.66 11632809.27 10346825.97 10176520.16 10724504.43 9846055.709 9355053.721 11915767.07 10682363.23 9701847.925 10987094.77 
10512637.36 10943809.82 9135685.505 10391629.1 10767630.64 10915855.32 10703443.56 10560809.41 11332568.64 10316125.38 10920169.17 10732972.23 10971414.64 9916862.733 9873309.31 10293133.95 10419149.47 10301982.16 10061986.71 10304277.75 10118413.39 11119290.75 9845675.177 10831964.68 10704569.39 11357740.9 10794195.85 10894722.87 10717197.5 9865000.849 11552957.61 10606094.47 10823143.15 10836581.01 9870254.932 11275112.41 10520736.02 11123517.74 10524388.11 11022067.97 
9595991.538 9466320.663 10534222.91 10310996.55 10531514.3 9486995.329 11498053.68 10993132.05 10851560.61 10843456.64 10962830.26 10290506.83 10628185.19 11307290.99 10240036.73 11110019.58 11383823.38 11232698.85 10942410.03 10910564.27 9902107.577 9285374.015 10716489.7 9223832.51 11248206.19 10735319.99 11455302.43 10883181.27 10359556.58 10129800.14 8918383.522 10113372.29 10965295.29 10418056.27 10598813.81 10397429.09 10743219.57 9888591.38 11044188.85 10271144.41 
10771221.83 11011251.65 9780350.367 10835229.4 10585170.23 10607664.91 11245674.12 10646793.14 10415375.78 9795533.538 11487193.9 10222572.54 10433266.85 10886971.75 10690403.87 9733390.211 10205157.78 10555184.72 11450396.75 10433258.48 10788678.81 10546305.64 10922083.36 9723558.155 10926842.7 10659840.86 10131680.9 10773493 10271218 10451834.97 9874813.513 11239833.83 10037143.55 10369180.57 10796996.68 11145102.17 11376276.58 10249744.77 10370425.97 10257666.75 
10350644.82 10318160.69 10389916.75 10271346.92 10234991.87 10846084.33 11161727.42 11105510.38 8990548.19 10133249.08 11497458.39 10532989.77 10721647.18 10710076.86 9732401.33 9988202.706 9997613.715 9952940.034 10307995.53 10231282.31 11395687.45 10850159.73 10912136.12 11076734.65 10955212.27 10285205.07 10751719.9 11336067.82 12480967.13 10658612.87 11037085.08 10290667.55 10675182.96 8821650.255 10655290.72 11005850.28 9270357.658 10783496.12 10593924.9 10467863.37 
9973011.652 10698686.6 11013073.61 10855619.1 9792633.686 10487173.39 9783296.06 9754937.663 10894478.43 10237492.31 10605794.95 11739230.58 10684099.78 11300170.37 9060418.7 11680111.44 10078163.17 10296293.2 10049173.89 11107905.15 9325966.471 10455400.19 10710116.63 10508196.89 10673217.58 9994281.311 9835397.608 10868102.78 10334201.27 11287667.9 11380627.84 10371997.76 10515592.07 10853486.63 10923516.81 10126802.83 10562236.11 10285410.37 10512308.48 9008583.628 
10593982.68 9223834.467 11303572.33 9230814.031 10135234.74 10266762.55 9781515.63 11793981.58 10847791.73 9947070.517 10503372.58 11154056.27 9793227.351 10050840.03 10389626.73 11191168.15 11140790.57 10892202.93 10605682.18 10845189.75 10511632.3 11138980.51 9277166.064 10639724.6 10196843.64 9695231.835 11114990.98 11063943.02 10531000.23 11978844.59 9377473.973 9939735.31 11023169.88 10900503.59 11931126.98 10258648.42 10379623.64 10534781.72 10067817.18 10140852.05 
10205266.11 11447170.87 10306820.63 11651570.71 9684203.615 11227089.54 10938957.51 10193393.54 11739690.31 11665945.17 10373599.75 11380547.16 10677693.66 11172218.53 11129859.95 9876366.753 11137622.28 10747961.87 11027424.56 11478916.32 8779635.004 10021723.73 9889896.827 10443980.64 11821011.04 11075051.13 10291384.42 10419585.56 12033601.11 10388064.58 11149404.6 9778292.121 10727182.51 9839793.602 9573529.016 10150229.49 9519327.33 10117801.8 8979477.63 10575197.18 
11059598.15 10165819.71 10981186.15 11688952.94 11078232.83 10990987.58 10375099.78 11034297.26 11098050.76 10783601.39 10122968.07 10562304.9 10308213.78 10940627.3 10106974.25 10872024.15 9534820.91 10571198.04 10951400.4 11421375.78 11219694.03 10441741.9 10797615.43 10292631.52 10291134.3 10457717.78 10841596.29 11575429.79 9761567.846 10251195.49 10887493.74 11161164.92 10451255.64 10809565.14 10833317.98 10811515.06 10027956.32 9583508.43 9902075.91 8845332.39 
11199717.62 10826427.7 9879472.215 10580054.51 11167130.11 10015421.48 10546844.53 10722021.61 9604394.354 11905070.85 9708256.927 10202838.41 10758419.44 11461857.65 11042291.09 11008888.29 11386990 11203049.51 10441600.83 10205824.05 11473637.96 10152491.47 10137591.28 10038772.9 10024719.21 10453906.59 11201851.42 10287664.99 11536126.02 11205382.27 10544262.21 10781440.58 10450385.5 10483715.72 10679103.88 9530978.876 10102842.85 10710812.96 9589050.922 10579872.35 
10693414.91 10755561.49 11524318.19 11143195.87 11359333.57 10811576.24 10130109.54 11086541.24 11195636.45 10436854.18 11351303.72 10030795.16 11187237.34 10783160.09 12309809.03 10888573.33 11013081.76 10221170.4 9159603.943 11926646.92 9822251.218 11029332.6 10630976.5 9933543.191 9610516.877 10973581.16 10513938.22 11023263.29 10703075.9 10395744.26 10877976.57 10176344.22 10413583.13 10439889.67 10236697.7 11085994.09 11417492.32 11357468.25 10698292.84 8820242.383 
10909347.02 10778577.08 10164061.02 11415199.39 10517654.49 11449329.03 9351421.865 11339204.22 11131385.03 10193355.3 9909626.04 11565649.46 10573096.33 10074084.68 11696972.56 10613115.53 11451979.74 10362254.9 10666609.37 10974521.42 10594790.59 10281115.83 10160171.72 11742943.7 9621945.351 10205515.37 10884080.21 10711659.33 10140978.5 10564822.91 11748339.44 10345773.65 10185006.87 10548426.79 10370438.99 11558181.33 10875692.93 10338741.28 10570772.35 10043556.73 
10666490.36 11002019.46 9806024.772 11121409.11 10683124.86 10893770.17 10225921.56 9884938.406 10755080.38 11141448.43 10938814.99 11371244.6 10283302.18 10462843.11 10131208.44 10277754 10747852.25 9986538.061 10546476.7 10160324.69 10575804.18 9789315.498 10240693.72 11300513.54 9943240.073 9959203.953 10645795.68 10433897.6 10244450.57 10215773.61 11549402.66 10139839.07 10309158.26 10567888.63 11446598.9 11062420.16 10703902.55 11782637.66 9143393.581 11340755.03 
11671920.65 11140684.37 10491304.59 10321457.38 10719544.6 10525377.5 9442653.316 10576341.6 9374152.915 11425900.43 10699681.93 11405521.48 10725840.83 11630835.57 11000336.05 10511182.01 11706579.99 9953706.954 9949532.169 8510978.304 10123409.15 9730045.154 11335440.67 10667835.07 11072401.25 10173460.23 9922766.721 11226315.2 10479328.83 10633359.91 9693806.173 11192916.45 10787176.43 11305518.58 10458533.39 9566965.714 11351350.1 11929819.35 10405738.64 10611116.1 
9742382.095 11053668.12 9605756.129 10001726.3 9954961.535 10603612.07 10593801.69 10296222.12 9271917.394 10656207.78 10318707.37 10152558.11 9792278.7 9657153.457 11361024.76 12145593.77 9711052.12 10642354.05 11599141.89 10720612.96 9994788.484 10226294.09 11811543.11 9678868.028 11155161.42 10955521.41 9403525.461 11008092.57 10646280.56 11081914.69 10572848.84 9735650.5 11321927.94 11109391.95 10231917.1 10309359.44 10862733.06 10605887.72 10788788.16 10662943.81 
9886450.191 11689409.02 10464246.44 9989510.639 11038188.56 10275411.77 10145054.04 11151398.75 11458455.63 10764590.38 10027381.83 10221736.03 10093379.95 9939892.109 10511926.55 11641507 9587599.911 10865117.55 11459349.49 9974562.286 9646337.067 10733769.8 10219627.99 10750066.99 10329150.98 10099157.62 9797978.914 10549671.39 11509004.08 10649038.49 11095321.87 9649775.098 10264619.14 10067534.67 10573305.09 10269135.22 10658780.65 10048183.98 9799930.227 10240444.35 
10378253.8 11078553.23 10917270.6 10035605.6 10761333.6 10402065.44 9440967.518 10672795.09 11188577.96 10357805.07 11857662.21 10873709.75 11367346.87 9278620.629 11147121.79 10672783.87 10550007.5 10872516.63 10087822.7 10100269.98 10277980.57 10605101.6 10701455.6 9946776.384 10372725.14 10866312.79 12358238.93 10354656.42 10829388.32 10424806.7 9277096.827 10583929.87 9926015.835 10140983.91 11871937.75 10556270.63 11692362.97 10785799.25 10379577.66 9752105.926 
10889607.21 9314623.513 10084996.01 10562100.82 9718216.413 10955209.42 11147049.26 10599863.94 9849029.297 10691396.58 10964697.65 10969634.72 10314835.86 9615935.596 10532726.4 10902598.83 10632221.46 10332807.7 10901104.52 9995031.947 10901029.41 10426000.35 10258427.6 9999767.645 10096375.79 10106006.8 10907652.76 11276272.65 11270034.23 10305270.02 9800615.629 9847371.997 11683779.52 10456253.19 10361858.97 10055309.26 11074557.67 10124437.07 10768106.58 10583932.1 
11015637.21 10976359.5 10463849.21 8983281.93 9513506.336 10960033.34 11332254.28 9572000.302 10284153.34 11308230.81 9791454.341 10256070.2 9974715.606 10660211.58 10490309.09 10312539.24 11355726.48 9182475.433 11001464.98 9859174.908 10680257.12 10179190.5 10234886.32 11112705.43 10068637.43 9740074.021 10815251.68 9758258.821 10426544.65 10012880.2 10775662.83 10549923.99 11003098.51 10996482.24 10921653.56 9805620.59 11427579.04 9819571.713 10822111.32 10350294.22 
9817387.249 9735523.777 10646182.26 9513899.868 10826723.87 11206019.94 10890674.37 10236282.09 10541087.73 10865417.08 9561342.365 10840517.24 10195699.99 9177588.746 9930610.679 10814540.88 10979548.1 9945224.092 10822675.61 10295782.36 10400890.28 11401934.09 10198869.88 11780731.71 9892834.946 9675127.83 9715975.722 11323592.17 11109592.21 9512182.489 10058658.23 10418996.18 10253720.91 10449700.74 10000170.45 10451609.86 10406173.34 10824558.57 10821516.91 10419254.19 
# Events [m2/m2_1570817955.x_y] N:
603 624 637 663 623 612 656 619 632 632 615 607 583 636 596 645 600 621 603 611 584 639 608 562 615 600 625 568 611 614 606 646 608 600 572 601 631 607 603 585 
617 617 629 606 640 627 626 602 594 599 650 633 648 642 644 599 595 625 611 640 628 612 621 644 662 618 545 609 609 659 581 640 617 598 629 647 616 620 606 635 
616 608 619 644 614 613 603 611 591 647 635 636 650 653 626 600 654 633 594 626 632 632 684 678 647 598 602 603 627 634 597 637 639 636 605 609 636 645 618 610 
616 609 646 688 658 602 628 656 636 630 635 634 609 601 593 583 592 589 622 637 657 617 637 610 607 647 673 644 585 623 650 616 629 614 611 619 621 628 680 587 
619 637 644 624 588 627 637 654 640 655 604 621 624 622 627 602 606 627 628 635 616 649 619 636 657 593 577 622 621 619 601 613 628 651 602 587 633 649 668 592 
593 666 617 641 615 611 608 609 630 628 643 668 605 637 658 636 629 629 648 650 584 628 616 624 602 607 584 644 638 627 607 609 597 643 605 636 629 601 630 624 
635 601 652 626 643 672 624 579 651 599 647 623 603 621 589 628 634 629 643 700 616 645 644 658 656 624 662 618 683 619 652 617 592 633 593 582 692 653 670 621 
642 626 589 625 620 595 615 637 645 606 619 598 639 650 610 658 639 611 628 636 632 632 600 640 649 616 620 618 617 633 647 635 615 671 597 636 665 653 652 634 
572 627 656 622 638 618 629 635 599 598 583 622 608 642 626 594 613 600 643 597 624 638 696 617 640 598 601 622 648 620 659 625 626 602 660 676 631 588 677 619 
574 594 653 652 648 621 614 619 639 602 714 649 618 628 642 618 631 621 612 603 653 624 619 667 623 605 638 676 628 614 597 613 642 629 665 642 606 610 590 583 
619 601 675 644 585 624 572 615 624 603 629 687 633 663 560 628 631 590 642 626 622 650 643 579 632 610 613 637 630 614 643 630 614 656 638 614 643 657 631 588 
635 617 672 601 611 641 574 614 603 629 651 628 677 611 634 630 623 579 608 612 643 623 623 616 622 665 653 573 626 675 635 611 599 640 653 624 639 578 649 576 
573 608 636 631 619 598 585 589 599 668 617 644 664 647 652 616 570 626 627 665 645 678 628 609 618 626 647 603 634 587 663 630 621 626 633 631 653 608 641 583 
625 618 662 597 622 614 620 589 638 623 592 587 660 654 653 637 632 631 652 584 623 636 632 609 660 633 629 662 643 680 601 594 700 636 628 679 640 609 583 567 
607 660 676 603 625 652 601 594 590 620 678 639 656 610 605 616 654 593 644 633 673 590 588 680 621 606 605 586 649 598 648 625 616 607 604 595 620 654 648 566 
612 641 630 654 635 630 655 605 604 638 659 630 619 626 635 665 608 625 605 617 660 652 610 642 620 653 630 586 622 597 639 643 674 655 647 626 592 655 604 619 
592 631 623 659 605 647 655 624 604 644 610 604 598 615 608 645 612 560 639 639 635 640 620 629 652 637 601 614 629 623 614 610 575 610 588 613 646 645 620 632 
659 634 669 630 646 629 642 620 576 640 592 641 621 588 600 632 645 647 638 655 658 646 626 623 613 648 636 645 673 648 654 606 613 575 645 638 630 640 599 630 
628 628 635 573 610 585 625 631 625 645 641 610 611 674 576 612 653 656 617 629 643 593 620 594 602 610 641 692 574 626 644 657 636 624 614 643 666 610 609 602 
597 644 632 648 619 650 678 633 579 590 631 567 612 650 580 660 615 592 624 645 628 634 634 601 624 611 654 642 619 622 586 574 617 606 592 604 610 630 652 586 
604 587 595 642 653 625 637 569 630 630 647 625 579 630 605 654 608 663 661 620 589 590 643 603 577 613 613 620 632 632 647 678 563 613 676 552 613 670 641 633 
624 617 612 609 586 660 632 636 659 639 603 588 635 585 607 612 627 615 620 647 561 630 633 592 631 603 656 615 658 640 674 605 663 613 625 617 694 659 651 600 
633 638 627 620 599 630 648 642 602 635 583 610 644 600 642 592 645 607 603 630 615 620 638 593 638 625 619 626 650 611 560 605 597 594 626 598 638 624 697 595 
624 624 589 675 622 632 660 616 632 614 652 616 615 668 628 624 572 632 639 587 646 633 612 618 636 641 613 657 601 616 603 613 649 623 627 589 585 619 636 608 
607 642 644 622 659 643 639 604 671 613 612 615 605 602 649 593 607 663 596 626 618 648 617 613 632 609 682 642 661 619 629 595 654 619 618 656 642 616 608 575 
595 677 598 647 635 609 612 657 640 633 629 672 626 631 608 644 648 658 616 667 636 622 624 643 653 584 624 598 670 610 658 608 616 647 646 684 623 606 631 603 
569 621 640 592 670 596 612 662 686 600 656 649 641 633 661 643 657 639 628 598 592 658 643 608 544 611 652 646 671 666 625 602 625 612 683 639 619 617 603 635 
578 651 633 666 615 624 621 627 684 678 640 616 668 637 648 654 667 631 669 660 623 641 646 587 639 604 554 622 646 637 651 599 628 604 607 524 586 657 601 594 
635 566 637 652 614 625 634 577 601 648 634 610 640 663 620 647 602 590 667 636 624 663 666 627 594 621 597 665 640 624 659 631 622 628 572 654 582 652 580 577 
616 658 651 608 645 618 681 594 626 642 603 621 662 654 672 642 612 627 633 626 692 610 584 599 654 619 651 625 660 633 617 620 613 672 677 588 616 643 667 613 
613 647 675 663 614 633 639 633 623 605 650 657 591 673 649 638 617 618 578 671 606 625 612 581 670 621 628 620 560 597 670 629 613 563 592 660 664 616 645 581 
587 636 640 653 605 626 626 644 632 611 580 626 644 633 659 660 639 621 657 614 619 646 645 605 595 649 627 609 629 635 695 599 656 616 636 603 625 623 610 586 
604 632 619 649 608 650 610 602 608 641 633 641 627 618 644 634 645 610 654 623 622 605 656 648 591 625 637 638 648 670 621 616 605 625 620 620 597 667 623 591 
642 617 606 586 642 639 663 636 581 621 590 650 629 649 649 644 649 611 601 601 652 651 601 610 653 640 643 663 656 643 607 580 662 652 593 582 637 627 630 597 
589 626 581 586 557 624 661 632 606 618 641 623 664 615 621 670 595 647 652 623 628 642 663 622 608 612 626 617 628 578 639 605 686 600 602 607 601 610 644 622 
600 656 595 596 627 642 619 662 628 586 611 586 583 625 603 636 603 605 628 656 622 639 620 658 623 635 644 669 647 609 630 610 609 594 644 587 654 597 619 623 
634 678 635 588 640 602 610 598 680 624 659 612 632 553 637 655 627 625 628 654 642 644 659 633 645 634 653 590 612 610 600 622 642 649 651 626 624 672 672 580 
626 591 608 642 588 642 609 619 612 623 660 612 614 660 636 665 629 616 641 619 627 615 621 613 618 617 681 601 651 640 585 638 639 590 641 638 607 657 640 601 
611 661 624 606 628 660 659 615 640 647 605 586 660 618 607 605 604 575 613 617 625 612 620 635 600 615 648 628 618 593 619 617 588 646 589 581 638 543 631 579 
585 559 656 615 622 594 670 648 614 599 621 604 632 584 604 559 590 629 667 591 629 648 588 582 560 592 596 642 612 547 614 614 626 633 617 635 623 631 595 582 
