# Format: McCode with text headers
# URL: http://www.mccode.org
# Creator: McStas 2.5 - Dec. 12, 2018
# Instrument: Test_Sources.instr
# Ncount: 1000000
# Trace: no
# Gravitation: no
# Seed: 1570824929
# Directory: Test_Sources/6
# Param: source=7
# Param: Lmin=1
# Param: Lmax=11
# Date: Fri Oct 11 20:19:16 2019 (1570817956)
# type: array_2d(40, 40)
# Source: Test_Sources (Test_Sources.instr)
# component: m3
# position: 0 0 1
# title:  Intensity Divergence Divergence Monitor (Square) per bin
# Ncount: 1000000
# filename: m3_1570817955.hd_vd
# statistics: X0=-0.00887696; dX=1.65947; Y0=0.00270985; dY=1.65926;
# signal: Min=2.39024e+06; Max=2.23345e+08; Mean=1.39865e+08;
# values: 2.23784e+11 4.21806e+08 999965
# xvar: Ho
# yvar: Ve
# xlabel: Hor. Divergence [deg]
# ylabel: Vert. Divergence [deg]
# zvar: I
# zlabel: Signal per bin
# xylimits: -3.12615 3.13076 -3.13978 3.14125
# variables: I I_err N
# Data [m3/m3_1570817955.hd_vd] I:
3853974.221 8829627.084 13026488.09 20875694.08 22970211.54 29666070.43 16737175.91 22918292.08 25341855.85 34677197.28 15170775.54 28010068.61 30939921.03 27300583.58 24189368.5 29723522.35 24849143.12 23301000.34 37848860.79 20194548.32 19539921.19 20217467.23 33379257.44 23046820.49 21205810.87 23328240.66 25803691.99 27729335.27 34867854.79 21159666.36 22427703.47 25004963.93 20601235.36 22229890.69 16460023.88 23754086.55 22634531.36 21337746.48 15178816.92 2390240.34 
9492124.061 35827822.93 59531817.88 68895448.69 60215258.54 71659521.11 74339482.8 70497867.19 78468230.7 74887479.85 66680793.96 69694190.5 76412205.3 78604362.54 66474585.02 60728124.47 62076851.03 74768872.59 61343272.66 67744092.3 71339016.31 61013281.64 83354910.47 74412802.94 74458810.44 68957357.31 69222643.98 59917720.38 79998107.86 81878535.99 64788825.14 67422036.51 56159194.06 68405462.8 78666948.82 56810062.01 74151494.85 56326424.41 22970105.8 6945037.724 
15683782.06 41841712.84 92083154.94 116221324.6 106959370.4 127626156.9 114088479.1 112607410 120679518.8 106847338.6 109469251.1 99591661.46 136088997.5 119348322.9 120056873.3 126481126.8 121569241.4 109495700.6 132385168.5 120418372.2 105873459.5 113957589.7 111123982.4 136410573.5 110668691.4 133199188.4 103248948.1 108476497.1 115328831 119968839.6 129411244.5 105668326.5 115819384.3 109529784.8 135830253.5 129306396.1 115777194.6 77898420 53751705.27 15589103.69 
26022946.37 75602962.15 112214537.6 154908953.3 165115961.2 153399067.2 143799480.3 157732959.9 132832069.5 163241725.4 175344675.7 179686918.7 162020965.8 158461335.9 172345334.9 156898280.2 161547899.9 166557851.2 165904917.6 163059371.4 175975640.9 155303521.6 150587824.4 158151128.5 169461144.6 160768742.2 145126413.6 160426032.3 167304978.8 137825003.8 141122366.9 155355200.8 139212031.7 172659359.5 178910686.5 160166432.2 146723183.6 107605028.8 65591857.01 28160402.42 
22110172.7 80078787.9 132998520.8 153208636.3 168568609.4 184995568.8 192324234.9 156632695.7 160634792.3 189826313.6 164698344.1 165241122.9 167428518.4 151976719.1 162334465.3 151246555.1 158855849 160346060.5 176431716.9 178181557.1 172525256 175050685.8 172275419.8 163309866.7 163727782.1 156172837.9 154792838.3 136032882.6 166432644.8 163863414.9 152766483.9 158608278.7 172627772.1 173480514.6 141239152.8 145029886.2 160501231.9 121335250.5 72407875.45 19696084.42 
37339421.11 82750697.78 120289889.3 164906127.6 165112200.2 144197858.5 177571828.7 157292128.9 162444873 170508136.9 161423377.2 172413553.8 175850441.8 176464898.6 172424613.5 165497825.1 171829406 164681380.3 189697218.6 153111944.6 154738881.5 165844491 166064688.1 190672630.9 159081269.2 148950521.5 173241659.4 185069750.5 163353404.8 155662183.6 165980419.4 168810486.7 163621341.9 160014338.8 169811386.5 152737048.1 175479616.1 109710733.3 87949872.73 27625128.43 
23210979.35 82408976.92 117371733.4 143790669.3 165291867.1 167733354.4 170640311.9 155185901.3 169118540 156845833.1 169987124.3 167207775.5 165632515 151286571.9 162382666 179748561 151472170.8 175705393.4 184869814.8 159214186.7 175506147.3 187456529.5 158461010.9 179254762.9 155961012.8 155279842.2 152841650 182031401.8 162702021.2 151263450.6 182806437.3 165431882.6 146681626.5 166904311.5 170762937.1 154153081.6 161196118.8 125962125.3 67232240.1 27030566.64 
28878732.11 76569836.38 127503122.3 183075686.8 165714643.8 158489317.1 175338825.8 172884938.8 173758532.3 188279052.4 193995289.4 169347135.7 166757091.6 162750263.4 153242545.1 166854404.3 176360952 190786583.7 176445377.4 162695860.9 197496688.6 167856187.4 183979614.3 169565976.8 148317440.9 176824804.8 168605076.2 145764678.5 171016686.2 166146571.9 160407630 169233823.2 168131180.1 168722015 162366708.5 165605980 167291641.8 137305083.7 69618198.66 24810340.33 
22753729.48 71188286.49 148112624.1 171063993 170551059.9 175395882.4 179403161.4 171508796.5 173611516.9 167733867.5 160168848.6 171073660.9 161316939.7 174500402.5 179735642.7 151615412.7 166529868.5 167481913.2 159795842.7 155737056.4 191498815.5 144547377.5 190315280.2 161112702.2 164285877.5 173558718.2 163572168.8 191802469 156204674.8 176093275.2 173352859.9 173965290.2 167933782.8 165532100.5 169853031.3 179148857.5 160235364.8 132605910.6 68289648.89 32623169.36 
26005892.37 83830489.8 115612666.7 167832565.2 168248705.2 157532018.2 169705484.9 155597776.1 174967740.8 184151049.1 189421385.7 189297879.4 174288437.3 146972237.6 162623335.1 170571713.8 150467467.6 154382359.9 180395390.5 157730604.6 176591893.4 177059368.5 169433353.7 163863863.4 179606001.6 157649827 177226833.5 160433063.4 166083732.9 184152267.1 171513993.6 167579122.2 151969701.9 177530638.4 151990110.2 175720435.6 184565147.5 120934951.8 67991737.19 21470656.95 
20830759.4 81511517.62 123582493.2 165138513.7 185430116.2 161515219.8 150424056.2 176908987.3 156248478.1 170530767.4 167231586.6 178712749.9 162168480.6 160396614.4 161976041.8 165062552 180431250.6 149439245 159997787.3 154628244.6 170021393.9 177849606.7 161425489.7 159002850.8 165386179.1 167215843.6 170037421 184144485.5 184501607.9 164256522.9 171527535 155021618.2 146998952.5 171291575.5 184864499.3 158121135.2 158078288.3 116090005.7 66051067.47 25937296.81 
32775321.07 78677220.95 121736650.4 145835261.4 198885093.8 183221796.8 171233256.8 164166237.5 174249700.8 179412840.5 162017362 154606219.3 154908594.6 178600542.3 168511610.3 169513693.9 165456206.6 181853994.6 164374984.3 170825087.9 169822637.8 193306424.4 180064295.5 156660649.1 162589902.6 157660421.3 163947714.9 185128527.2 164534089.4 157509717.4 169147319.7 188833287.7 173592648.2 174094895.5 162402372.8 166360541.7 133776561.6 114408388.8 65222703.36 31538077.95 
26242798.89 79748369.23 111567731 145985232.8 172755588.2 168915315 147484809.6 170827057 158816001.1 171553273.6 197526221 169544855.7 191141578 167519572 176297102.5 152878039.2 187627156.6 178042122.5 170598634.3 180591656.1 138719676.9 152229059.4 178385798.5 163087874.9 183419951.6 156561113.7 175229474.9 180859018.5 177871027.2 172425034.4 160330007.8 151858516.8 174179006.5 167007114.3 153293977.3 177045280 157828357 107410958.1 75146600.41 24128107.46 
28738659.05 69539600.24 123846070.7 162533568.3 151791637.9 164990383.2 167765308.2 170933257.5 144551497.5 170888046.9 172405350.8 154790601 176190955.9 166896625.2 174022444.9 166766462.3 169735501.7 167961235.5 162596180.6 188266355.2 182917168 168285292.2 155032691.7 171299055.1 172428911.6 183497705 160082223.4 160049905 162034057.5 133031926.2 171990955.2 167515838.3 176518737.8 154784278.6 145056264.8 169610761.6 142490249 112034160.8 77939887.67 27944018.83 
28175753.21 72345389.08 118339969.1 177494947.2 166365452.1 149791255.8 173113041.1 162900888.5 146085248.1 161430295.7 176696104.2 174173237.1 164128810.7 184923318.6 173046306.4 175419095.6 188916611.2 186355719.6 154041892.6 151405230.1 171642405.4 157762195.1 175111041.7 159847474.2 161278889.7 168753559.6 159152957.7 163885539.9 162382891.1 184741217.8 170377331.2 182892072 163481459.8 168753399 174615713.2 158443838.8 169256517.6 120992097.7 76610006.46 24204333.3 
21998346.24 74289113.05 138702613.6 186526062.6 166821688.2 160581527.3 162543095 166802699.8 161573978.1 173951491.2 161987918.5 156333874.7 177330945.3 160363325.9 172948271.9 155335675.5 160743434.8 180084264.6 165082805.6 159853851.5 161274100.2 170657323 187863678.9 157167073.9 160438795.9 189034389.7 156360844.6 172868218.4 156356545.4 156323415.3 185320404.1 148227129 154711878.5 151223567.1 179037326.2 153258831.8 163483034.8 106750672.2 68659848.01 28999723.74 
29530457.8 75879898.12 142698692.8 164162685.9 170093463.6 175460215.9 153620994.4 162318230.2 185570564.7 182135379.4 164982270 170302059.5 170847833.6 164824778.3 156443479.9 149560537 160102932.6 198751650.7 137021304.8 181107624.2 189926119.6 171737354.9 163924183.9 165098637.9 178468025 172937726.8 156835207.5 163827688.5 182622981 171001910.6 172304524.9 176355533.4 167200760.4 180327677.1 166059500.3 148972458.6 158313089.8 127214106.1 75748204.52 22801302.24 
24374223.43 67331509.25 127835869.9 182442687.9 169008508.1 167739381.6 147155782.1 164940180.3 160354366.7 157362745.1 158467412.6 166239151 172595820.5 158830681.4 160565576 162605683.7 174368730.6 169156964.2 175404644.5 162523978 168316349.9 184152826.8 163046491.4 148167719.3 169170097 166201905.4 153618138.4 156512708.7 170113209.4 168853154.2 158834255.4 152967197.7 165132289.1 165652059.8 173034775.6 163429703 166923753.3 107620456.1 75530988.03 23141965.62 
28593852.66 63437661.09 126216080.6 155856391.2 188435209.6 157468531.9 223344900.2 171185886.2 169377170.5 151336744.1 164685319.7 163344860.6 160753254 152861905.2 166963826.8 166429110.1 148216087.4 164668991.2 151650320.5 176550475.8 192556383.6 178111164.1 173289807.8 167484475.2 148058613.5 162837936.2 169416291.9 166821625.4 182549678.9 170759270.5 165705360.1 174961199.3 161504476.7 167262265.4 169852032 165435524.2 170332274.8 126174189.4 71750157.87 21424687.43 
28959578.22 57366827.75 122757589.8 171744149.4 159221301.4 168721285.2 170313091.3 145047867.1 170217494 164391289 174309592.8 157133782.5 146642804.3 167100421.5 177699560.5 195937061.3 169239148.9 178824860.9 154920737.1 152341064.9 171121956.5 172285004.1 169068357.1 159941935.4 170672411.6 156327772.7 172273155.8 163341749.3 176490321.5 186565318.8 179793682.8 156538151.9 146944213.7 160868011.2 161746370.2 159427528.8 158176030.1 111697406.4 77226781.36 26891414.64 
25022813.7 74597921.32 119255189.3 179142940.6 171356240.6 180313881.1 155375399.5 170247516.8 153857931.4 173701927 197306187 163525770.3 155787187.9 158464596.5 161992332.9 150547697 178172998.3 164952287.7 146224300.5 173797465.2 156012187.7 160479837.5 157131153.2 168934937.4 162930519.4 161605633.1 190965228.6 177792306.3 170474254 157914893.6 159948212 158425072.3 155891831.2 177217459.2 159196388.5 182500503.2 163684135.6 131352421.5 77656698.12 28766395.64 
29890274.18 68374374.67 142803163 169458558.3 158485944.4 173285690.5 181317166.1 154146595 149335020.8 170607281.2 176507692.8 163410735.5 179577361.8 160865557.2 155398985 166983967.6 166203152.7 160438025.7 172319891.4 177131744.9 168418238.9 174496854.3 154530397.2 165533169.7 164129704.1 176410909.7 184800569.7 181007600.5 175864836.7 174015932.4 154294650 150885860.5 170865870.8 165435239.4 159328034.5 183237424.3 170004994.2 124320027.2 78330780.82 26880115.2 
29938197.98 72538048.03 119395645.7 152589701.3 158480835.2 167672891.1 166238015.6 166921311.7 181482764.3 193151542.6 170528853.7 170740243.9 178811189.7 184425668.9 138492010.9 162989893.4 187674408.5 156617700.5 168509059.6 172267335.7 168730918.9 173817801.9 169257143.2 141386312.8 173888011.5 179531471.6 195372965.2 176986840.8 165771443.5 174240769.1 182981975.6 153997966.2 183375666.8 175123942.7 167708249.2 180914749.7 159492912.5 116596672.1 61227408.94 22261648.27 
27477519.95 80472455.49 118986691.6 149109300.5 173788483.8 150554063.8 163044354.4 192958528.8 173575360 162681183.2 172750164.4 175284041.3 184046411.6 178768231.3 166039451.1 179030156.4 160619536.8 169874755.8 180767380.9 166242959.2 175101338 162529191.3 173753922.9 162272514.5 178256861.6 142964342.2 185639125.7 170992276.1 159895019.7 201598317.4 141622027.6 166781491.1 165364180.6 152735922.5 164649663.9 165789654.6 160534006 126845088.5 63496819.72 31984984.67 
31104746.01 72996754.26 121757125.6 153172459.4 175558526.3 166044920.7 170506790.8 174261007.4 171244126.4 161656955.5 170708030.2 176422266.1 154879806.6 164387083.2 176404990.7 181315964.6 161483026.9 176309281.9 168802717.6 170448727.2 172556061.3 189680326.1 157219110.9 162835246.5 154819066.4 160410279.1 153381714.4 166415321.4 159512659 167373598.4 187618434.8 147170442.7 173932123.8 191004583 168124289.2 167058851.3 163036969.7 117196009.5 71584737.77 25659607.27 
22087652.79 73028368.61 126654297 171654193.5 184054181.7 160322299.5 158518880.9 164205223.5 143354782.8 170061624.7 164561106.4 158816253.3 176322641.9 157657331.6 158928541.3 148857217 154428369.4 155006041.4 179822356.3 151739663.4 157589408.7 169176259.4 178497968 171398254.4 176194796.6 161172498.6 164480540 176949757.1 176835272.3 161541114.1 152444768.1 163739235.2 168285392.2 168959220.1 169146499.7 157282824 152521422.1 140602967.6 67417660.03 24172213.32 
24751920.05 72397030.56 120932699.1 141879707.1 169129250.1 151404108.3 183229983.4 167691621.2 161549083.5 184079694.8 184227027.4 161433213.1 190085271.1 181426569.5 160800239.2 177368760.6 184308893.8 180207888.9 170636205.8 167965119.7 167760650.2 165939822.1 159985875.4 160985518.5 165571934.3 168076647.1 172906863.4 204030877.5 169927233.3 161679583.7 170523311.2 158796280.3 162128037.6 173307739.9 182791441.8 171770725.3 145604955.5 111622167.6 63670069.36 27238622.69 
21945216.28 87222464.05 142875678.1 164973297 173731816.5 155929000.1 168874590.7 165825859.5 200023852.4 172167859.8 157359480.3 176548260.1 189002224.2 162534547 160865453.4 143489364.2 198875968.8 181758407.3 188229942.6 149942645.7 154757238.9 157719118.7 153114683.5 156368620.3 164374284 164339658.9 181995347 179484567.7 177182404.2 177744148.1 167044106.8 160573219.2 159403850.2 158719287.1 157273118.2 166973759.7 136781463.8 110789296.8 68350307.34 18405595.05 
27085941.53 85552366.86 129974043.9 173048212.6 176500087.8 175963549.9 184986555.8 175347779.3 173876177 156808144.9 167387556.7 184476595.5 168058663.7 176704479 180667923.7 166722126.8 157087736.7 160094507.1 192660706 160763489.6 155482111.7 163005769.4 174234736.4 183121671.6 161716577.5 152827815.1 164099595.6 156356597.2 148297886.7 162619229.9 164926279.2 175106318.2 172577348.4 169891615.7 150266168 158259948.1 161663565 120694752.3 79184735.4 21390321.68 
31302947.66 77091767.96 107196013.6 172234649.4 194924056.9 187332990.3 186403651.1 165329913 184121418.7 165745583 174931886.5 166848246.3 164251966.6 163072737.5 177824260.5 170122162.2 183729025.4 186974254.1 153928301.4 167511320.8 182247520.7 159720105.8 172945509.7 179486435.5 158044429.9 181533795.4 151754856.4 168918393.4 177529244.3 190967583.8 179006058 177360751.9 145042172.7 177725327.2 157410882 165615976.7 157814685.1 128648997.5 64495165.96 21805488.53 
34994587.08 91505377.04 118597144.9 150619918.8 173941450.9 188981265.5 158490286.4 166440174.8 151766086.6 180230491.7 160587567 158158185.2 177923752 165136764.5 174576223.7 193060427.5 168241996.4 166138782 150504197 188463475.1 174096652.6 144606696 160555614.4 188442479.4 166401923.9 159581926.3 173584492.7 181169415 170358036.2 176217766.4 169687314.4 173636631.4 190943419.2 184870173.1 182178848.8 165943662.7 172583638.1 101529356.9 68394752.46 22773868.45 
29757561.53 76640459.2 133523360.6 170192579.3 169376372.4 152942077.4 158956723.1 195513256.2 179749493.2 149413604.1 161314585.4 191754121.9 192013269.3 165446024.2 172968297 150408378.2 182240546.1 167338557.2 171187134.1 142109356.7 179669615.3 165230081.3 171868871.7 155516614.5 161432832 161895239.8 181928307.4 145147004.9 165397552.8 169864360.6 175190506.2 158251049.7 188881564.4 172784571.3 169682046.5 163922493.7 170030245 115606482.1 84942956.66 30370816.07 
32010757.74 91316102.05 110957309.3 160182215 169224766.7 177391271.7 164690684.4 163913521.2 139456639.3 177827396.9 164070003.5 157560948.6 181152689.3 188510922.9 160573175.9 179463969.7 178819088.3 177612410.6 147431997.9 168599523 176896209.1 145880382.3 158139462.1 169759905.5 162244050.7 166979237.2 145664172.3 153804887.8 175493653.3 178836702.3 159750040.3 165586749.6 155725448.6 173096748.7 161058588.7 162726538.3 179267374.1 122784615.7 77321458.27 28512128.67 
27496758.6 80307380 126743322.7 156105584.9 175619714.9 156146369.8 143347957.5 165148081 184709161.7 165004207.5 149087065.9 172798227.2 159576249.4 176518444.1 161856154 165953284.4 167814208 165915706.2 156806245.2 152206317.4 171848637 162934632.2 177510587.4 191394783.7 174404387.2 162366380.5 169317645 156939530 180923828.2 157691857.6 159194964.2 171434286.8 179713377.4 167842279.3 163012594.6 156797002.6 165767507.4 123553073 73681141.78 24637371.9 
27749791.31 68734381.72 128473137.8 182532072.1 165330508 166560801 148712644.3 161786977.9 163287354.4 180541149.4 179839486.2 146383142.4 152993656.4 166187646.5 169153923 187183380.7 163507708.2 176997692.6 160518711.1 166757467 175432309.3 173164888.6 178017633.5 174865364.3 170924841.3 166055930.6 164394694.7 170540791.2 167325842.6 188450141.2 195372378.5 170658439.9 175610546.8 158464564.9 139841634.6 179381898.8 156467175.4 105020606 65792960.61 32673896.13 
34432407.42 78766839.76 124756960.4 159203760.7 171046233.7 158106752.8 163417157 172167297.1 164154660 177086271.2 186323017.6 174274198.8 145443297.7 166195911.5 168272655.7 155855062.8 165547644.2 172703370.5 175426158.6 172488674.9 172761501.9 180945356.1 144584116.5 155932297.2 170640254.2 157039328.9 172846009.6 147261827.2 159254253.5 173389789.1 165350511.2 169943806.8 165943020.8 181222934.2 167972636.8 156936852.4 178185413.1 107398007.7 79560805.15 22762076.6 
23995700.36 72922336.25 106128151.9 155177951.5 161082618.1 153902365.7 152547647.4 155849356.2 156280263.1 146934604.3 163850307.5 140960810 170921992.1 153358931.5 179188789.6 150490991.9 137293467.9 164528570.8 160968266.5 167724641.5 161295699.8 170799445.1 165477517.3 157098837.3 151511136.5 152357540.2 173659634.6 137822568.7 152819077.8 146228951.6 159354744.8 147793371.4 155925318 165389918.5 167157265.7 154472902.6 169462695.9 102842300.5 67981256.29 25129580.7 
20187560.79 53161719.89 81380531.18 93532380.45 101379136.9 125332034.7 132913432.8 124402566.5 123121480 120107011.1 126457964.4 110397535.1 115838461.3 115790412.3 111138940.3 114612832.7 117748963 107999481.9 119069786.8 104736999.1 119899522.4 116729597.2 125388534.3 100047928.8 120856520.1 129570600.4 107654251.1 106672529.4 129650353.5 110015297.3 119857876.4 115922697 134436143.1 119804789.1 115739452.7 116804308 108583618.9 75776730.88 48650477.37 21706889.7 
8158545.568 37990367.14 39749391.24 76116401.09 69590370.33 77916368.96 73660115.2 83775420.3 71258913.34 76294942.87 88003733.46 69695679.86 65572012.31 78770975 57713255.54 71628440.8 77824245 75749375.27 73970250.41 69389635.03 72604838.98 59382345.68 60847707.69 70852806.09 70521339.47 78883304.52 67818707.84 63881568.87 73431287.99 66456347.09 67171241.61 73577013.42 67318108.8 71012979.86 68764406.93 72190165.02 67014406.15 46333558.42 34964210.17 11698636.66 
5143590.192 5958382.363 17200115.31 23945475.72 25497010.8 24868056.89 28893460.91 27104010.21 25569655.19 27088042.91 22508534.73 26662358.37 20135906.28 19290613.18 24020315.86 23156296.34 23807930.04 26958578.41 20083139.81 27737795.08 19872292.5 28014123.2 23151037.63 25202356.81 27067343.36 20152063.34 22090313.15 25045293.79 31311550.28 28663708.82 22814138.08 19676114.44 29233854.51 30774274.95 21874753.28 22093409.74 24097702.48 14327864.7 14459317.68 2569594.68 
# Errors [m3/m3_1570817955.hd_vd] I_err:
1522272.337 2592540.085 3105667.441 3933981.606 4348713.137 4870653.145 3411340.524 4361630.567 4733972.583 5623730.462 2775955.99 5382268.705 4834483.773 4783074.523 4031603.927 5189747.233 4402201.809 4330365.056 6096133.4 3815937.196 4044510.989 4073821.951 5175976.772 3809453.371 3659425.141 3790395.668 4832729.562 5153032.202 5662612.607 3975976.157 4151291.636 4416973.968 3379176.173 4178888.747 3568893.034 4811016.009 4179556.797 4048273.711 3444711.642 1124506.057 
2926596.868 4931074.682 7095809.856 7136828.355 6320914.587 7560994.1 7947488.025 6924626.579 7723522.138 7671321.837 7386044.627 7431986.239 7903853.273 8383556.592 7025208.013 7010411.91 6884985.839 7990894.325 6894739.846 7214422.649 7814095.792 7068095.293 8059878.132 7754407.582 7667943.15 7718954.906 7572867.496 6555691.835 7967054.192 8348354.863 7012743.932 7381476.823 5857345.199 7479773.159 8000226.13 6370519.471 7702401.46 6629134.306 3688072.292 2660524.34 
3162199.532 5237129.246 8906028.701 9604049.386 9239116.19 10008988.72 9829629.001 9359524.577 9660437.606 9234683.924 9176685.164 8813580.427 10862469.29 9657084.707 9949791.619 9904082.146 10091373.68 9280825.417 10531130.37 9409148.431 9148963.406 9064118.331 9272146.173 10387887.69 9178714.183 10501128.93 9181466.575 9154859.607 9609988.213 9761404.589 10344488.83 9029402.606 9587806.073 9289019.27 10581357.98 10575974.16 9667402.926 7620636.502 6893758.799 3399623.388 
4153156.141 7756874.493 9513954.902 11288225.78 11779201.83 11169574.4 10209391.42 11256187.58 9530468.45 11552921.41 11938738.03 12077885.28 11405935.01 11035336.8 11849509.96 11128315.28 11679318.47 11748244.06 12121638.18 11567351.85 12259129.08 11142843.46 10437946.37 11447763.11 12066120.56 11593276.46 10442422.84 11246941.6 11456579.54 9584112.175 10504744.58 10867760.69 10235107.91 12057345.94 12107316.05 10993039.16 10541358.98 8859786.018 7517328.384 4618083.739 
3829412.357 7760791.9 10803827.69 11278044.66 11776097.83 12323803.03 12589969.92 10595730.45 11063564.01 12555149.09 11197438.76 11505840.65 11466104.6 10961983.51 10961058.52 10655319.66 11159295.44 11483013.27 12156251.68 11876791.91 11663333.6 11696421.51 11725403.15 11596209.65 11286741.75 10754440.34 10586048.39 9856597.004 11781396.14 11426562.5 10538074.26 11427661.94 11736417.94 12182783.68 10114907.54 10493456.42 11171764.14 9882960.607 7434813.062 3562440.777 
5507175.343 8032186.741 9956735.311 11345083.4 11177157.64 10064985.35 12138134.84 10598055.98 10935117.04 11540376.59 11066243.1 11773760.61 12018851.66 12047336.39 12123187.24 11280764.02 11984017.67 11085225.6 12876324.54 11054714.66 10908049.91 11563627.17 11632289.34 12726862.7 11104834.44 10592054.39 11751934.31 12117103.7 11186349.71 10717978.75 11593730.45 11789369.77 11402631.43 11270531.59 11777074.64 10771382.44 11827039.51 9359080.415 8768374.381 4735062.266 
4361426.177 8437739.308 9670438.858 10362011.89 11486384.71 11302399.32 11943660.81 10685547.97 11423284.78 11171347.27 11785436.96 11580581.08 11369392.11 10677783.75 11019169.57 11862967.79 10895132.56 11807797.75 12388796.76 10984675.8 11733381.42 12511559.44 10865177.3 12184519.71 10988516.79 10628942.59 10827745.24 12251331.3 11274612.33 10861730.49 12417774.59 11384262.13 10625599.01 11899458.58 11538652.4 10719700.89 11118548.09 10034882.05 6836202.291 4804082.853 
4754049.164 7448630.095 9696167.693 12591786.45 11675717.87 10864637.46 11789091.76 12046289.32 11839435.75 12736506.22 12946684.06 11563122.69 11699747.37 11559722.18 10993400.69 11411249.7 12120980.49 12455294.31 12001800.13 10733380.35 12995680.85 12150548.94 12013005.97 11657304.69 10519773.94 12039308.48 11765397.76 10755470.51 11590892.46 11333616.3 11158022.22 11260876.04 11990367.32 11542104.96 11153197.34 11302311.53 11307386.88 10744525.24 7407052.855 4109621.581 
4122047.396 6908970.011 11522519.78 11518269.36 11477341.25 12130942.27 11976507.24 11631816.96 12064809.36 11202070.24 10966778.63 11745590.44 11004916 11979183.49 11957061.86 10958556.78 11792112.44 11407120.23 10907006.15 10797465.51 12547975.35 10196268.15 12358347.76 11190095.18 11574648.35 11612113.86 11788270 12772748.7 11025720.51 12139622.72 11924221.33 11862674.14 11200661.52 11657100.91 11344591.77 12398125.86 11054238.01 10579857.55 6920696.083 5188676.397 
4652147.649 8760336.397 9277749.615 11724472.67 11587651.79 10564770.18 11315752.95 10803432.91 11981476.43 12725547.54 12649104.03 12625159.26 12175739.31 10542104.83 11408421.55 11358698.62 10366433.12 11028156.96 12371017.73 10541914.23 11691072.96 11876131.29 11851548.84 11623956.87 12131348.11 11128483.66 12086310.69 11464504.3 11206921.6 12256904.31 12100317.35 11637788.25 11415763.83 12350674.96 10716453.37 12095266.91 12159557.75 9774379.977 7275761.345 3687698.94 
3647209.632 8362625.711 10572832.65 11363856.09 12704812.18 11290572.61 10993430.5 12325734.05 11117520.87 11908879 11323168.99 12234579.74 11292335.86 11274396.97 11449331.34 11401339.9 12148468.79 10263666.04 11107378.96 11038167.97 11878911.06 11892418.8 10996641.08 11163662.97 11479850.89 11435233.61 11221052.55 12535213.28 12459258.87 11159877.8 11308639.32 10693031.86 10397450.26 11344822.99 12527831.73 11228246.52 11903240.33 9439291.33 6581620.071 4359760.284 
5145169.627 7903032.056 9813002.093 10420593.74 12756267.69 12145877.36 11874620.14 11710560.55 11614751.32 12121924.18 11051210.18 11619356.22 10770811.72 11816542.98 11505205.13 11420060.54 11136011.87 12054079.98 11181288.21 11964360.36 12152427.74 12851390.89 11915827.08 11149687.77 11538408.29 11005640.07 11791674.04 12370590.37 10984058.16 10929484.94 11522767.5 12485984.22 11886510.82 11491589.13 11251893.79 11732812.95 9791550.316 8978429.22 7313416.483 5438173.916 
4265459.998 8147293.693 9132730.608 10573870.23 11752432.08 11420732.63 10789336.91 12062658.92 11294757.53 11646758.79 13104490.49 11603639.78 12459407.79 11172354.18 12184675.85 10641387.57 12675008.57 12016170.96 12025247.78 12293862.66 10088094.55 10727606.07 12215867.9 11253072.46 12203473.46 11118538.04 12151433.64 12390329.69 12256791.01 11813990.63 10880899.4 10442125.79 11625046.77 11645103.67 10860344.26 11928543.85 10992251.4 9301028.183 8143576.519 4371094.911 
4509960.964 7190132.887 10207231.8 11214705.04 10405852.09 11149608.43 11385762.47 11818364.84 10602284.32 11998999.4 11669457.98 11060312.8 11833302.2 11438909.64 11761584.86 11632498.99 11917382.88 11702995.04 11011028.38 12289493.19 12121120.6 11442278.31 11259257.49 11229016.63 11567628.6 12170099.24 10975869.45 11666947.61 11465557.23 9621154.16 11571397.57 11386157.42 11862540.9 10803864.85 10360011.73 11795820.82 10130241.54 9603645.918 7932363.36 5066856.81 
4586154.211 7577110.61 9307184.813 12517353.67 11770556.39 10353926.21 11975864.98 11610363.79 10114910.53 12021414.08 12151510.18 12090335.72 11497813.68 12210622.33 12195666.02 12055766.55 12420606.86 12788325.2 10641188.94 10790079.91 11636121.8 10500012.54 11908780.86 11048389.44 11124036.98 11568888.19 11005181.29 11515359.38 11303135.42 12635838.77 11842873.98 12618234.68 11544510.06 11864154.49 11377873.4 11150889.86 11757963.26 9254384.027 7582841.758 4621024.303 
4146560.629 7739515.754 10926170.16 12519131.77 11830909.75 10873464.49 11087980.32 11430963.49 11642203.92 12114828.73 11531487.09 11367301.93 12105679.57 11280327.08 11923996.51 10864713.36 10882356.03 12000809.36 11797250.66 11381165.64 11159552.36 11756880.65 12832029.44 10874355.72 10610513.7 12606072.69 11032353.74 11934143.14 11258829.33 10929604.55 12363236.12 10886506.52 10894037.9 10849865.14 12269153.08 10738074.02 11308508.22 9298611.082 7227896.695 4814549.305 
4587385.617 7446248.196 10860549.12 11046037.39 11497226.68 11888870.81 11171104.05 11614811.83 12434075.43 11738798.72 11195161.95 11877534.39 11868749.54 11504787.31 10843039.45 10743585.85 11424849.49 13092232.41 9927858.712 12738860.82 12385310.76 11604145.37 11317980.19 11549591.03 11971963.39 11787837.86 10972169.16 10860505.7 12427092.88 11612275.25 11961795.45 11843535.99 11234936.81 11887088.95 11467134.57 10630942.16 10840984.94 9939304.407 8128308.398 4224684.984 
4160500.047 6768796.082 9834716.395 11932836.94 11179205.05 12074503.45 10245971.49 11386842.99 11555805.62 10853072.23 11409423.96 11385750.55 11902591.83 11115231.77 11389547.55 11885004.49 12047942.22 11517524.07 11743373.83 11193454.34 11541680.06 12649800.45 11247339.74 10288774.35 11821267.29 11400180.86 10814014.37 10593671.58 11397238.99 11588306.16 11013594.96 11327076.24 11120590.63 11449269.41 11688412.68 11544250.71 11825096.17 8970616.586 7857090.53 4013018.871 
4681127.571 6702957.649 9817240.855 11061369.04 12854840.82 10939338.64 13952672.5 11419215.31 11788902.82 10810808.96 11414043.76 11447449.14 11299601.33 11068872.33 11584824.53 11073101.55 10893797.2 11263490.03 11569923.28 12366995.29 12274453.71 12115167.58 11784092.99 11390131.73 10438001.84 11207645.12 11655292.72 11387104.83 12005556.05 11608051.91 11399041.77 12080978.04 11333725.73 11821041.79 11437339.66 11151782.47 11721472.97 9917811.173 7517755.785 3840551.642 
4597262.873 6702386.362 9957256.076 11793056 11090477.97 11528572.67 11697799.05 10302504.73 11676390.89 11399325.7 11808678.23 10936529.81 10252120.67 11395446.53 12138562.3 13255143.54 12013074.67 11662565.68 10758691.42 10516768.9 12019983.66 11879073.61 11465759.7 11079249.16 11676509.66 11354509.11 11757854.51 11520526.53 12124471.68 12423481.65 12277251.35 11187477.52 10900914.01 11105174.53 11004402.89 11696174.79 11659379.1 9468023.215 7952334.877 4835516.543 
4537602.08 7940448.657 9871608.289 12195073.82 11566784.19 11975720.36 11050261.49 11769653.79 10735896.59 11333690.13 12881156.55 11383874.93 11578065.22 11394730.36 10934639.59 10371661.38 11855623.62 11687877.29 10026740.95 11687987.01 10507318.56 11332023.64 11154821.92 11232128.14 11143843.1 11062769.15 12933782.44 12335386.92 11161281.62 11053840.18 10955567.75 11284506.63 10824800.09 11721860.8 11094272.47 12460946.49 11437455.63 10483603.95 7952957.983 4941437.167 
4753013.135 7109975.492 11005382.78 11528171.02 11151022.44 11636987.43 12160766.83 11082704.3 10379653.94 11665588.42 11799191.4 11055271.87 12486075.31 11145593.39 11165761.96 11344423.8 11691301.26 11046349.68 11693388.13 11891824.44 11689464.7 11840368.8 10905732.72 11300652.82 11570832.47 11973518.28 12363326.89 12082929.57 11939682.75 11695963.71 10654029.19 10616368.31 12009209.81 11868365.43 11090656.43 12577187.84 11430823.61 9988320.139 7818013.405 4556859.845 
4916207.872 7337395.014 10103924.07 10650828.77 11090440.43 11478495.77 11359598.22 11155619.45 12090047.6 12590937.26 11284535.9 11841070.03 12314882.66 12336240.53 10163752.37 11628638.18 12743827.27 10907692.26 11492903.52 11508043.56 11920151.71 12184447.54 11492194.1 9940754.171 11847976.46 12083405.61 12843485.56 11784799.46 11635196.94 12126002.51 12587400.28 10820730.98 12163291.88 11761785.48 11374497.6 12103280.93 11124927.16 9579105.454 6514217.695 4100540.437 
4690489.623 7855818.504 10231796.94 10664636.61 11552434.04 10137919.97 11197428.01 12795661.54 11664818.66 11265991.15 11771301.76 11670033.81 12412038.82 12122301 11345549.15 12096696.97 11308508.79 12064455.29 12359005.52 11552661.76 11532006.54 11244611.36 11882906.49 11370353.76 12158104.25 10419839.57 12036958.73 11681400.32 11797954.63 13372885.85 10399942.62 11553348.42 11129165.38 10468757.28 11349105.45 11584912.83 11215284.31 10124338.31 6771206.198 5216661.696 
5001217.628 7548298.682 9700527.974 10343569.55 12287412.69 11422529.61 11599702.24 11547363.47 11451271.03 11474106.42 11967477.51 11899542.93 10664470.49 11278206.92 12028551.42 12742239.36 10498046.56 12422649.64 11430556.29 11653107.84 11920979.12 12481097.16 10615522.36 11558569.84 11409686.79 11395448.47 10668587.46 11642120.21 10600811.41 11097742.12 12668795.11 10146132.34 12264440.68 12265741.15 11598695.63 11316241.24 11560288.89 9369672.122 7952558.128 4703441.551 
3666457.377 7745167.804 9941208.859 11915372.07 12216269.17 11093591.96 11400785.34 11063734.56 9976632.563 11863846.06 11177249.45 10841643.35 12024402.17 11140255.04 11073462.93 10354686.75 10791939.32 10794551.06 12097868.17 10644738.52 10821761.39 12220640.31 12220122.99 11934741.88 12004751.34 11305223.34 11661176.76 12671255.46 12027130.38 11470706.1 10928813.73 11434605.39 11923137.17 11464018.2 11392369.28 10664794.64 10746078.72 10888652.05 7015411.043 3791177.095 
4211742.576 7749168.028 10125822.6 9923277.513 11107593.03 10795686.2 12619414.77 11354653.37 11103207.46 12247824.02 12476438.67 10911379.73 12782129.26 11958134.26 11204047.31 12039786.84 12368854.82 11796294.78 11700664.94 11262356.05 11861911.11 11074476.56 11305483.58 11313568.82 11430562.65 11422632.95 11915103.81 13226723.68 11430354.25 11202958.75 11743349.21 11611127.46 10898295.17 11462588.43 12029553.19 11570909.23 10878209.91 9011621.187 6633651.359 4702077.666 
4191377.059 8712622.005 10873661.31 11767728.71 11875657.4 11126605.33 11435764.39 11360585.79 13400271.16 11487152.86 11322299.12 11852404.68 12393615.79 11611750.91 10869313.46 10380648.66 12669384.09 12078391.83 12730992.48 10921192.13 10755225.82 10808382.16 10851971 11351852.85 11138613.29 11114598.93 12298559.74 12262787.01 11966774.43 12084502.84 11338904.31 10702425.92 10966212.84 10992876.96 10881983.23 11802420.44 10384961.72 8750958.294 7086445.265 3610159.612 
4569509.021 8454135.211 9952860.943 12244735.57 11730952.36 12194827.52 12221747.61 12157339.89 11921636.93 10997295 11483458.29 12268653.6 11248978.79 12165325.52 12521832.63 11297115.69 11108219.95 11743698.53 12648335.28 11036733.4 10683375.59 11353005.99 11793438.35 12532449.94 11412621.03 10991612.9 11323608.37 10858091.2 10622694.72 11425196.83 11358397.97 11867518.45 11933016.85 11505463.93 10957027.84 11405130.5 11687202.33 9680587.846 7853397.415 3940825.048 
5194175.933 7921613.76 8652289.692 11291893.34 12779750.74 12530749.01 12353575 11860408.13 12425838.35 11577329.3 12045184.05 11587443.1 11579063.04 11254835.98 12072594.76 11605639.52 12245034.21 12820188.01 10934220.51 11430711.27 12081449.76 11280741.99 11884034.94 12560933.78 11199789.59 12409249.62 10874807.21 11633121.22 12418193.55 12436008.71 12648185.57 11831322.88 10687669.03 11748875.3 11261527.4 11631726.6 11132038.1 10091742.97 6777886.888 4109594.357 
5747739.394 9031350.03 9860181.977 10301838.26 11707546.36 12748435.78 10971729.11 11389368.1 10475055.09 12563377.77 11291509.01 11280987.45 12486784.38 11661657.33 11647583.92 12838283.84 11481013.4 11751475.85 10612305.65 12428711.93 12303455.95 10188111.15 11228776.54 12559621.83 11175967.5 11172668.89 11796309.21 12104476 11823781.09 12163636.6 11624530.28 11681086.69 12511595.79 12591408.61 12118660.2 11570788.02 11782341.93 8418427.967 7032501.751 4252638.174 
5123766.474 8246877.653 10500359.17 11125273.24 11670168.11 10715346.63 10987318.67 12617133.37 11994959.16 10948615.65 11268791.22 13030980.6 12898949.56 11306142.16 11903880.04 10394446.5 12118047.86 11733530.79 11619044.18 10055794 11556621.01 11268319.2 11847801.88 10784912.47 11283947.84 11387922.69 12071907.51 10536480.99 11405148.22 11535224.26 12104207.51 10645395.87 12400904.57 11653217.08 11854907.88 11104931 12221221.32 9561008.224 8661424.147 4803613.857 
5166183.966 8957832.49 9264677.894 11690367.77 11525818.64 11486368.42 11263673.63 11102321.88 10038339.39 11746994.7 11237754.76 11305944.64 11764944.17 12260934.62 10824112.67 11913811.68 12142414.38 11900542.72 10558713.39 11566767.46 11832085.51 10700343.57 10930452.82 11748794.51 11041951.74 11107756.47 10327245.17 10666098.63 11756665.42 12327584.1 11305099.07 11308559.28 10952339.07 11658542.63 11519724.67 11565896.04 12565116.25 10025584.52 8186350.735 4815193.411 
4715665.917 7908458.069 10509047.62 10938859.09 12053160.71 11066826.27 10172400.46 11008605.17 12391625.88 11587811.88 10771008.74 12086259.56 11292801.53 11563093.57 11373847.58 11558545.01 11556574.6 11188121.66 11238776.24 10885286.01 11368262.12 11341676.33 11817038.62 12576176.28 11731060.56 11215850.09 11320543.59 11109512.43 12149141.66 11123601.91 11065751.77 11977415.87 12027478.2 11931340 11260838.33 10860696.1 11135327.75 10213665.72 7788810.307 4431144.564 
4745693.777 7062827.32 10123128.81 12130293.84 11617591.95 11284149.19 10813489.4 11072373.66 11173003.2 12055296.76 12027681.52 10360957.61 11008773.51 11370679.21 11782814.23 12903933.53 11426517.91 11898712.54 11280529.62 11541700.99 12027300.33 12268399.96 12066622.3 11851754.92 11877262.71 11705621.33 11488889.16 11660071 11408155.77 12321411.33 13083448 11551240.57 12097137.3 10565784.31 9847794.482 12524354.56 10830427.83 9076908.939 6863530.456 4748141.942 
5438765.021 7951173.085 10124065.51 11350557.62 11369263.21 11220500.23 11339555.11 11986245.13 11288027.83 12025646.04 12649093.25 12061581.12 10698272.01 11264295.15 11693456.93 10756288.64 11471856.67 11993129.91 12043030.16 11545476.72 11660209.14 12194233.14 10533353.82 10986459.21 11659165.87 10660726.27 11869456.03 10732998.52 11559335.74 11459617.4 11493521.61 11536933.79 11558368.96 12437182.83 11711053.07 11044282.48 12168974.99 9423582.864 7931554.674 4342868.648 
4297664.888 7596575.392 8978408.95 10919626.86 11631676.12 10969295.99 10818612.9 11174527.58 10896029.95 10730933.89 11679424.78 10388568.33 11529985.27 10856127.52 12359085.98 11085421.38 9630421.175 11386534.32 11527659.77 11474768.31 11566312.58 12012269.41 11802008.03 11484033.33 10985334.55 10866546.62 12081085.86 9981573.069 11037421.68 10096233.24 11253024.76 10783990.13 11477143.58 11443679.5 11800300.25 10610978.93 11691004.06 9250676.427 7704901.088 4600968.446 
3951041.981 7039328.081 7591277.42 8115360.129 8698221.766 9513125.178 10219182.93 9589031.384 9416473.537 9807624.09 9962540.332 9329586.634 9471175.629 9664024.768 8806860.563 9580436.852 9540088.725 8870995.995 9481562.261 8852024.617 9789548.977 9556605.399 10093263.32 8631560.252 9773364.673 10273107.38 9363589.153 9140309.408 10577830.8 9394241.145 9762567.899 9586487.077 10451409.93 10118747.83 9663476.607 9635487.67 9144986.667 7991163.828 6161810.02 3987848.453 
2366047.136 5610570.2 5431652.756 7849499.038 7628646.594 7745682.957 7921652.266 8459747.957 7446494.984 7959550.605 9059782.107 7130290.942 7352197.952 8324435.981 6342729.35 7209918.482 8336328.537 8210553.095 7967933.041 7474416.276 7857968.973 6397001.631 6841237.479 7436144.498 7468087.867 8461138.81 7010903.049 6968503.825 8042648.752 6867776.356 6640622.961 7750673.779 7063193.463 7904392.417 7824670.192 7507367.086 6839214.352 6177045.848 5181166.123 2892682.536 
2305590.806 2063644.041 3970724.201 4060627.352 4470503.685 4372866.704 4423144.769 4619606.748 4295493.216 4942707.652 4351941.319 4649080.265 3481000.307 3158917.154 4236045.173 4170964.946 4261215.371 4729745.918 3848670.863 4390375.21 3582247.3 4675752.132 4040586.848 4333924.875 4714284.39 3406501.825 3975937.082 4623024.08 5606893.994 5058702.198 4141237.247 3869335.701 5012895.602 4718272.527 4175757.645 3905734.257 4381898.435 3491989.007 3351827.407 980089.0311 
# Events [m3/m3_1570817955.hd_vd] N:
14 43 78 108 116 118 101 115 111 119 106 103 130 109 130 135 107 113 116 111 101 106 128 116 121 107 112 108 111 109 110 107 109 91 93 96 99 96 63 19 
46 171 245 340 313 331 355 355 355 323 308 297 335 335 335 302 300 281 268 312 305 288 333 321 310 309 326 292 307 338 320 320 296 294 340 303 316 245 149 40 
86 201 383 534 502 539 500 533 513 492 516 487 533 554 495 553 529 503 558 592 510 529 531 572 517 568 476 507 554 548 533 538 536 513 544 540 502 386 216 82 
121 319 502 696 718 692 698 722 690 723 788 770 735 718 737 706 723 684 693 726 710 684 705 727 697 703 657 721 687 723 703 669 655 722 729 738 659 555 299 113 
121 342 573 709 746 781 748 746 782 818 734 715 711 719 745 748 748 754 759 731 749 766 748 736 738 770 752 677 758 727 701 747 761 739 725 727 729 522 359 105 
148 368 535 760 771 737 735 730 770 744 747 765 756 765 734 740 730 725 762 729 726 734 775 735 768 722 791 779 737 751 743 750 792 755 759 707 772 511 357 133 
120 359 524 686 761 780 717 776 728 725 704 740 755 723 744 759 690 763 757 772 766 780 728 775 719 769 719 740 738 712 749 779 728 724 779 782 726 553 351 114 
129 344 564 747 749 722 755 738 763 772 772 755 736 758 698 761 750 761 776 770 795 716 785 736 718 744 765 753 737 734 755 757 734 762 753 762 759 559 324 116 
98 343 558 768 787 757 765 774 745 739 752 722 772 767 773 756 748 782 715 742 781 748 802 764 757 785 713 760 732 746 748 731 764 752 768 755 766 573 338 136 
115 324 537 732 740 783 763 763 770 773 758 800 773 684 719 785 756 710 762 760 781 777 769 752 798 712 772 731 766 791 744 759 712 757 755 783 774 548 340 114 
130 348 515 745 745 745 710 713 704 719 755 714 720 751 722 775 747 711 737 754 709 784 793 737 762 724 775 772 759 777 788 734 697 835 795 704 713 516 343 100 
118 349 550 705 803 766 734 699 746 735 745 713 776 788 741 760 713 761 749 687 720 787 770 697 713 749 738 757 767 747 747 774 774 792 753 723 722 537 292 117 
132 344 540 702 769 729 694 707 706 743 786 775 814 788 748 710 771 782 741 769 700 697 752 801 763 723 765 785 755 761 757 722 780 750 719 769 711 521 303 115 
145 322 509 770 689 785 757 728 648 759 754 743 746 735 754 679 754 748 739 775 809 766 703 783 769 777 753 716 763 713 769 769 789 736 762 727 659 527 369 113 
125 344 550 729 739 725 793 741 707 667 746 747 768 813 742 737 798 739 727 725 755 788 753 768 741 724 722 723 712 749 756 767 742 724 795 735 712 525 351 114 
121 361 548 769 744 763 784 764 754 757 727 735 752 742 752 752 747 785 714 735 734 780 736 741 769 787 746 759 720 736 758 700 728 757 763 766 715 517 331 120 
136 335 567 748 809 750 680 734 754 762 763 750 753 722 747 751 704 772 705 760 812 741 739 712 802 751 740 790 744 734 738 781 788 765 735 783 765 537 330 121 
136 337 551 780 796 733 732 744 759 756 735 722 724 740 749 721 738 785 785 753 768 749 742 712 769 749 749 730 761 737 762 743 705 755 753 744 718 555 323 105 
136 292 564 732 764 761 802 813 695 739 747 732 736 708 721 781 735 732 684 767 822 790 744 746 734 757 753 769 748 747 743 740 763 750 775 781 755 545 343 125 
118 299 540 743 755 732 738 707 778 764 814 757 743 764 742 772 733 796 709 739 691 723 752 757 701 707 750 710 778 759 785 705 700 776 760 696 686 521 328 123 
147 346 512 734 785 758 689 753 737 744 755 709 672 689 774 712 773 768 730 739 768 744 696 777 760 747 732 780 800 768 747 709 708 741 727 740 736 542 333 111 
148 326 573 739 753 749 815 711 735 759 742 719 766 698 741 737 730 765 786 767 711 736 725 752 721 792 750 788 751 720 730 683 748 707 709 780 775 581 356 121 
132 340 533 691 761 738 722 750 744 745 770 703 728 728 704 727 730 734 742 780 759 766 749 744 742 778 793 758 726 729 773 728 759 782 749 818 717 534 338 129 
122 361 483 722 737 754 778 796 760 701 788 774 781 782 732 764 785 713 736 727 758 756 744 742 771 708 784 683 740 769 706 735 746 717 766 724 722 532 322 133 
133 368 554 736 755 759 788 765 762 757 720 735 770 733 705 732 763 755 772 758 729 817 732 724 685 720 738 768 753 777 748 752 734 793 723 741 733 528 314 115 
106 314 558 748 805 743 712 759 755 734 775 808 762 710 755 745 771 715 757 720 774 715 748 755 764 724 746 739 788 737 758 737 723 775 765 763 681 530 330 109 
114 326 512 741 763 695 744 781 755 782 787 780 792 779 729 782 789 767 766 764 722 799 750 749 741 799 723 789 773 803 751 720 757 761 756 729 681 541 312 111 
119 337 579 731 712 713 796 744 757 754 722 748 765 750 772 736 807 777 739 711 733 769 727 699 731 747 779 728 768 738 725 752 720 707 740 736 677 547 337 109 
132 345 570 694 788 745 763 715 737 730 763 772 770 768 739 819 761 696 808 787 751 718 751 753 744 701 738 722 749 753 729 801 755 766 702 730 680 542 371 108 
130 320 560 775 794 778 791 714 756 720 745 746 757 738 758 789 784 758 715 753 784 741 775 695 720 775 717 778 753 764 750 775 675 811 739 735 690 554 315 103 
134 331 499 775 762 803 732 738 771 753 741 735 733 754 802 807 760 759 763 752 748 746 709 767 779 771 761 800 741 751 790 757 772 728 781 742 741 502 344 116 
137 331 541 760 751 733 741 804 797 700 752 779 778 770 766 706 776 739 760 722 786 743 762 739 759 740 781 730 748 738 743 773 774 739 734 776 722 535 348 111 
144 345 531 682 745 739 754 750 724 759 745 751 778 789 756 765 752 791 735 776 762 724 750 768 765 747 712 737 760 707 726 741 769 765 721 719 737 518 324 124 
135 361 530 729 727 708 677 765 786 729 735 753 716 731 751 751 718 768 708 755 787 774 815 778 782 756 772 752 767 731 740 762 761 729 742 737 751 559 326 105 
113 339 556 767 696 758 677 748 802 753 753 733 716 740 710 798 778 759 731 748 763 699 758 794 687 746 736 798 734 765 742 797 769 713 708 726 731 544 326 140 
135 349 522 720 726 714 721 722 722 743 755 746 692 753 760 784 736 754 779 757 767 784 703 774 785 739 761 720 697 765 766 753 728 766 700 744 747 508 349 112 
127 324 504 699 732 693 708 729 723 666 705 677 719 721 738 662 692 702 711 775 698 686 741 676 684 688 715 712 740 713 714 691 672 741 706 694 692 487 335 104 
89 222 405 516 516 558 577 542 584 538 565 528 518 502 549 526 500 504 524 491 543 500 528 478 541 543 513 514 501 510 520 513 568 515 500 536 515 331 217 94 
51 140 213 336 300 337 331 343 336 319 343 321 305 320 310 308 310 308 312 329 324 303 281 313 333 315 313 303 293 320 339 325 328 323 304 326 305 215 153 51 
26 39 75 113 116 103 115 107 118 113 113 109 105 94 130 119 104 103 104 121 113 127 110 110 119 123 110 112 116 116 106 106 124 122 116 117 103 78 48 17 
