# Format: McCode with text headers
# URL: http://www.mccode.org
# Creator: McStas 2.6rc1 - Oct. 12, 2019
# Instrument: ILL_H512_D22.instr
# Ncount: 1000000
# Trace: no
# Gravitation: no
# Seed: 1570894450
# Directory: ILL_H512_D22/0
# Param: lambda=4.5
# Param: dlambda=0.45
# Param: D22_collimation=2
# Param: D22_sample=H2O_liq.qSq
# Date: Sat Oct 12 09:58:01 2019 (1570867081)
# type: array_2d(50, 50)
# Source: ILL_H512_D22 (ILL_H512_D22.instr)
# component: H51_split_2
# position: -0.240102 0.0325 10.6977
# title:  Intensity Position Position Monitor (Square) per bin
# Ncount: 1000000
# filename: H51_split_2_1570867080.x_y
# statistics: X0=0.00021334; dX=0.011505; Y0=0.00121137; dY=0.0159014;
# signal: Min=2.15827e-28; Max=6.6539e+07; Mean=1.67899e+07;
# values: 4.19748e+10 6.05191e+08 21513
# xvar: x
# yvar: y
# xlabel: x [m]
# ylabel: y [m]
# zvar: I
# zlabel: Signal per bin
# xylimits: -0.02 0.02 -0.0275 0.0275
# variables: I I_err N
# Data [H51_split_2/H51_split_2_1570867080.x_y] I:
21900.57759 42492295.35 153586.544 18544800.43 34531.4672 34327177.44 2550850.152 8521084.294 81281.41268 30676661.97 15752403.22 16841442.68 15584615.01 16639048.63 7743677.995 831.7608202 34740872.27 18668117.47 17519226.27 1.248045105e-05 0.0004168568867 68.48145004 23330996.97 10728565.61 14209316.84 3472043.354 11769863.53 37909392.61 8794285.184 16472975.76 3663531.047 38530694.56 24718268.04 0.1363417246 23792521.61 11868104.04 14588384.02 9098143.332 9.992105429e-12 18457780.23 378370.2424 18616788.69 18761535.74 2283301.632 7526850.222 17615437.24 9487782.657 13399876.15 1261463.735 21400699.26 
10903437.1 46332885.32 30387145.34 10567865.35 2139.321835 7414259.711 2338300.02 6500.434673 14859616.19 8340842.542 9967998.489 20423586.61 279017.2302 12183816.54 20582846.77 12876671.27 11493296.57 31506885.2 20253288.05 11129888.95 100107.4253 20367392.12 298222.3375 24205824.92 7549692.412 13067167.55 8352101.736 940584.0198 29194414.83 15571994.64 8383851.078 10530617.6 9788293.588 20311665.74 10304345 1126308.578 3682497.175 10415008.53 21146526.91 18167032.98 357037.0479 39248.70272 15796019.25 21006503.16 25356536.65 15299940.27 34073826.21 5009406.41 18659912.58 8214041.94 
7151294.2 5241633.758 29569.67368 7263748.457 298401.4933 209987.5845 11470886.61 39777597.27 10502805.61 15926305.67 6677278.39 25254078.63 44982660.19 8945878.379 2452091.124 35669379.13 234187.9993 4416242.926 6041891.104 12290808.93 1117649.038 29348552.15 17575502.38 29606771.33 7674533.269 15310011.12 8929599.007 18880298.67 9548141.432 17719984.23 16052708.49 10275129.39 2262.1127 22421189.19 9091407.364 8056746.335 15435053.85 15175799.05 25725273.31 17779496.98 6.071476828 2752677.163 11490719.46 13631667.73 12334063.86 13475738.82 19361560.18 47178193.34 11009588.7 17420020.65 
31155100.36 19712821.45 5832868.803 8428956.896 350781.3319 21952633.74 16842788.64 7916717.986 25560381.46 1693.203982 47828831.64 8163154.263 19300108.22 19126117.13 8652150.306 15286446.38 9719881.967 14005340.05 13338505.22 19078702.07 8027342.76 9248999.87 5453271.339 25966601.83 18191945.32 29066334.24 31703.87135 12686218.53 9322883.409 11354245.99 18059835.83 21977264.17 3564.053581 29810446.22 34712627.97 18277433.55 11015990 21608751.77 5805426.526 36917434.42 10087977.53 15832137.22 23325466.03 9487915.75 2616744.878 25418927.86 39092467.97 33724.92838 7337963.897 14638971.8 
8110583.881 12576885.83 24454464.57 37323878.34 15918098.43 10381864.81 14083316.06 38459517.88 5707282.476 104967.7613 5924045.408 10701737.91 49944318.99 22028294.36 7121792.832 19280257.18 8697342.747 21012741.03 22375309.52 17437438.97 29818942.09 36696.45085 26821031.46 18743071.93 30974434.67 6145863.477 14787681.81 27044484.01 13781522.21 8752865.044 20033019.02 57907364.16 193553.1612 26814242.54 11372028.86 10164376.99 15746756.05 26330101.55 15168224.55 12387925.19 19443757.83 12873534.36 25184880.05 8070037.659 4829519.326 37057633.46 6962.672728 14998705.84 15423074.44 9582710.466 
19387097.97 44839.9078 32370.76401 16113083.53 20618939.69 2797669.377 12293442.26 13811122.46 24428924.5 18332843.08 20506934.72 15315536.53 18692042.85 8142840.303 5551637.536 18125939.05 33752978.5 11771547.51 21608616.89 8008794.34 9196959.099 6360256.901 37352754.3 17683589.33 11467825.65 18172184.94 33709506.41 23887826.57 9678922.15 3205309.053 18253260.07 11487970.47 35026970.83 2986873.557 17431808.83 9338975.739 25070691.89 83514.78413 17460774.11 6842286.135 25624078.95 7799124.141 29122594.69 16066206.64 7679899.085 3955312.747 7920210.474 27053577.38 26335991.86 40680136.1 
9388852.459 17035529.24 15749.35549 13042542.46 17595759.3 7597194.313 13751871.4 36573657.42 15447052.25 7632225.175 19758796.79 32263253.36 30994805.06 15437344.65 12313067.78 17357017.71 9961863.375 31540731.2 4615849.836 7029493.01 164296.3755 82.61014605 21891413.27 37422854.75 12282159.23 36386802.28 2474527.65 11462190.86 31920980.67 18742748.82 18223443.94 164476.3721 23839870.3 20982049.41 4194062.163 984605.217 16343271.66 16137260.37 36501966.94 30574997.29 44584924.44 9865798.3 13265860.42 31187378.83 25231363.35 5544722.358 38611076.81 375583.3061 21686051.9 27625660.83 
390685.2525 22387.69181 17466031.28 9337631.932 1099751.837 24012560.36 7078003.166 14923314.79 22222963.4 13554213.55 5742845.09 3652151.032 9339791.695 15371998.15 8763510.703 13406031.59 16400993.9 17320875.56 17373294.09 21520540.34 30244253.04 41369487.82 26884340.9 8461974.102 28733861.28 30824195.31 41212164.13 787876.2836 20979557.51 29103647.49 9422763.74 10394970.5 9403860.765 1.688743743 7229996.146 15245877.89 167.380918 11946082.59 10779290.78 8490701.397 2514854.468 17759006.56 7869239.225 38808021.47 7113036.059 48103782.93 11657.82282 11255463.56 25343104.5 2134.943484 
18971113.44 24895046.28 11093882.72 4.342674291e-18 5604364.316 22549982.62 1788189.341 17232416.55 20940939.85 35108332.23 14324200.51 8625720.275 19838142.09 2298103.4 22092990.42 9702972.975 10075101.77 14788821.48 9462501.291 28114202.56 24840317.52 3434110.65 32531199.57 28137157.72 10358769.71 14626086.34 9403518.484 20510742.38 17259776.82 11517793.35 1.53086856 11667102.21 17986160.62 23108408.42 24901982.09 9771460.76 31195122.29 27700424.05 1.385983226 21054070.28 12689780.66 18751062.08 8339710.958 20103854.93 44470018.14 19489157.95 26727619.8 19418158.25 5.141907576 7735521.966 
32760196.28 10635618.21 28124160.37 29907662.79 1410590.137 43507675.32 15886446.42 16333985.18 32091304.45 8229.288273 21272852 33606.58149 33328273.75 430.8133273 30919394.98 21434104.19 17165165.14 33722554.96 25960.05939 30272109.72 20352311.29 25422897.49 30598680.79 16254389.07 23950339.11 12598403.08 13631651.35 9941306.729 17505017.68 15768697.26 21721662.73 19436057.37 15923764.05 15882388.45 1.500540866e-06 12072078.78 10928378.08 30145390.57 192012.254 19.48124868 21991453.53 4085296.017 2455745.452 25956490.96 19457813.52 16686194.18 18623071.93 29878115.2 7307392.557 3695045.279 
8501213.227 13273014.07 17656877.14 20373876.59 15659251.81 20574520.2 17032280.16 17115951.37 17412152.4 25473913.67 19671829.84 28720636.17 9147585.311 7939144.571 14723255.33 20377345.68 2747988.183 5385035.981 34710302.56 10132748.47 0.5654445326 23982040.25 47307522.54 26133831.87 24060596.98 7941833.839 9806662.436 370471.2669 9125332.053 24675536.04 20191252.52 9054494.616 23037072.31 25651595.84 17863971.4 28311428.94 27754673.82 8072087.854 8307340.543 10847519.44 8755009.733 242111.2872 35716078.45 49992610.62 34485907.25 26803204.03 11512478.3 13516486.02 8414041.028 9.109070411e-11 
8903935.816 8721565.473 9724393.325 51429797.95 30498869.54 15149307.3 11425126.52 12941313.55 6358.115553 23487455.78 10704490.24 25337082.08 17873196.64 35.06497622 9698587.427 71.19372013 8799635.96 20514776.01 19094526.67 33163502.58 13325871.27 23274753.26 24463658.86 8710786.668 5348685.137 21087621.58 11074557.94 23148837.68 14201737.16 12689728.56 39816266.7 71773.45791 26000071.93 15900322.93 9190249.397 2631201.297 7675479.954 20982134.33 1196978.918 25423858.82 12698361.48 33411904.62 18095067.83 4235348.567 46019943.06 493.0186843 19669194.09 281743.2319 16260355.16 498.7735015 
26693331.36 93441.83224 42826365.38 5676712.823 20848586.52 13078.95423 356164.001 4648436.983 10534491.09 15560265.92 6908315.88 20577862.05 44291.9186 9339757.347 31000469.06 14643769.9 12603256.08 14950821.39 240.4321195 13696967.93 31864854.66 574598.9333 9247773.499 23563325.88 15024268.08 15148583.99 9471376.729 33890683.26 16315950.22 19530561.17 20477181.96 5913978.32 38288676.08 18663736.92 18683304.21 16444969.59 28417363.02 10002590.64 27541013.85 28976652.18 34474266.63 11327568.63 15772261.07 27786112.18 14749039.65 6588163.847 1322883.666 24856409.6 19999659.96 307.8478495 
18881.86236 26802113.41 15287041.16 20880934.73 9395350.308 17257641.83 24656938.03 17746542.9 32122456.93 11737794.81 15296.41081 23227080.24 2586701.65 7484290.996 7777580.008 31417640.92 26.74517582 27933526.78 10013371.19 9905130.581 8603999.861 28139015.13 237454.5817 258176.9616 5245244.578 25693153.2 18862656.24 35178406.32 38607979.83 16551252.55 12014513.43 12951270.12 9063088.078 1675804.731 17989065.08 6308410.007 37483133.52 13569412.23 8450906.971 31308339.19 337927.0469 50500956.37 15546183.19 9818152.844 49221863.75 12765684.15 267680.6493 10520459.24 30992940.76 27654596.77 
10996602.31 25080961.92 7402852.15 46105062.85 9582503.101 37052469.15 16202062.44 29176205.82 8072595.039 16442644.1 14941900.53 25578833.71 18715521.68 39119016.77 8927896.256 17884946.39 7763777.118 17478598.94 27105177.5 11184871.08 1061078.932 16499694.51 456721.5536 9529152.137 74612.66772 11463156.59 19546665.79 21711246.15 29149329.64 7011037.056 11654191.1 16811905.97 28983776.03 12390778.49 8015357.358 15521819.08 34093977.53 0.1678092383 5159403.482 11966360.19 6561226.242 31782905.8 23257521.74 18461696.87 10545505.59 36070607.7 13218974.84 651848.5154 2420663.903 11435070.32 
1466456.308 19015637.46 18394800.35 3549348.334 3677424.37 16350014.58 27803259.2 23303605.93 7201845.029 10919727.86 17651437.39 2398524.537 23724378.8 6530287.351 7227787.089 9810406.835 35447240.75 15181866.79 5876114.412 19961289.61 15192828.74 8464271.981 5.69325985e-11 20227310.84 18150662.94 10101300.91 31909832.23 16816364.48 9596929.036 17140520.18 113885.6495 1410.196305 12126044.47 11537100.43 46720044.79 2.95768746e-22 24317789.48 9690026.787 845138.8231 397407.8706 2561172.416 49894153.43 13809211.14 12394091.45 13209231.11 5748747.559 11949558.14 18042984.22 31343641.55 27801437.23 
25264169.97 31772018.56 8341880.302 27959782.89 2.158272826e-28 19053518.94 9992592.446 20837115.67 25292707.98 28557718.43 26884239.34 1064502.396 10074527.03 23834385.68 11475723.79 21918734.81 12147041.08 8301796.55 7551917.124 28270678.6 123.5948529 10364.48254 32291739.18 29018.65727 14913.16592 9408444.687 38947129.46 11662599.02 19057949.04 358354.2536 15430861.99 10581938.55 148775.9773 28223386.41 23125709.61 8.611931182e-08 132.6665838 8578081.134 35401196.15 61104873.47 7436909.849 1341910.242 24981.97328 23344388.39 557.2505358 80.34396121 130121.4069 219226.9847 21336507.13 568635.0948 
7056376.799 12180681.47 9154682.626 8205784.601 2092413.822 15406553.5 0.04130268193 9207052.319 30216573.03 23336329.66 12771724.84 5853453.202 12927335.34 15337880.88 467.3156619 10738761.18 3646416.03 20375594.67 10066936.85 15140384.17 18526735.91 6.755172858e-21 18525865.63 1214798.568 20761314.32 26362244.26 28196684.65 15125581.26 17092639.88 194.5157345 9077136.999 1041394.889 40057867.62 8.497549547e-19 27661302.49 10115366.57 23314140.32 334709.2652 15652190.1 14693481.07 7499118.4 12160014.4 15807525.42 26271969.77 7850104.722 27622315.76 10592.29208 23649302.33 17820541.56 5721662.181 
8364901.339 30202630.63 3419173.13 10814558.06 8319801.515 15792229.63 8600810.644 19867809.52 22056706.32 9641354.408 3550372.901 28054049.37 9619330.785 2268029.916 17302250.02 10783593.43 18563590.16 13010152.61 28016319.17 12515158.7 21062988.79 29606817.93 288331.9546 27733767.69 2180.800745 8325472.005 8339632.967 7221966.444 16481001.63 26928849.27 18704198.91 19811408.65 26510247.71 13080901.42 8456419.62 7052753.421 22949006.77 15876548.7 14860848.85 19457778.57 5413112.79 145.6824471 23599452.23 54964763.2 10443915.8 17385649.44 24622814.53 16661873.21 25043864.8 46709.09603 
25820606.16 11230199.5 2457.490643 4.504654781e-08 17029626.13 11556668.96 20179698.24 41912124.97 14613261.52 30533287.63 21156928.87 12321745.77 21826899.65 10347000.21 15347356.24 11455248.27 19238696.68 15179314.74 17188931.65 17583251.74 28927446.42 53450900.38 3464872.489 26696114.21 19224986.63 21552558.26 30755731.17 16513161.06 9210.680954 2004499.991 16385693.21 12551459.86 41245100.25 26221372.72 25367938.78 6.706996905e-10 20595212.48 19339524.33 40671152.75 15130925.16 3142820.4 7709721.796 1287421.374 28050980.65 35272164.77 10031055.85 7770872.213 6556537.487 7868404.826 21826501.87 
32386437.56 20073312.02 20570289.2 7182486.202 9719652.189 8787106.787 17262652.38 24105669.15 95027.48949 17438392.28 8889111.737 23140183.06 4281475.093 7562725.563 20614648.07 17869253.87 6551575.329 4743.593938 17837592.79 613339.7573 4828700.126 35392922.81 364.6140786 13563977.37 23355.62537 13313431.93 36223680.28 34068642.09 12483282.94 674428.6884 17320855.9 8855512.802 21672271.89 8020276.01 15182245.38 25465523.07 35339664.57 22341313.61 10262580.45 12613844.97 866256.9939 23826022.83 8013637.535 31710862.45 11853042.93 12330538.2 32136767.42 31919035.33 9855179.664 4.437562608 
9253605.722 10783525.45 16947697.22 11176350.74 16356732.9 25775151.32 6384714.606 7724818.139 19482683.17 13492620.89 1144904.834 8872341.574 15656523.98 19281465.04 8396546.301 18094097.06 4.383707519e-11 82713.51392 10965928.58 22386267.88 38575693.37 27413726.04 8133.249645 20088044.69 11794647.24 20554425.14 8530915.098 17950240.55 38992731.43 3132114.465 23606636.7 1397347.616 15696421.36 16826596.6 19443046.44 22276903.57 25992028.42 19906298.78 949688.197 6764177.737 23243944.93 34058207.2 11091499.27 51496814.08 15145548.91 45588714.77 11733493.27 11276920.56 36749457.73 23751654.19 
25965347.07 6765571.811 28051608.41 42663319.72 7673209.656 18064411.2 951424.9767 7199599.091 19392133.9 9025663.295 12838030.85 1978605.532 646301.4518 12.14282861 2452774.979 28925289.77 22812111.79 32752390.26 12207390.88 7518770.954 8959344.849 10422835.4 15561172.06 41859920.92 24673491.09 15872783.27 15312912.48 233340.4502 10346286.95 26988442.78 26628488.8 34043835.66 14469193.34 7790100.109 19113650.07 10339079.49 23941535.69 17517087.68 12621289.43 24234588.17 32264052.74 36396737.33 10498876.96 526178.1055 636886.4099 21277015.25 9223125.546 19965626.62 26812178.96 30453451.39 
9323511.458 9038721.881 27025186.67 28372485.28 144347.4855 10171498.87 20703421.47 18187406.05 27559581.37 22038425.32 9414370.943 20148154.13 19101096.87 16385559.55 8000873.104 2728933.251 30280652.34 25944750.38 51500.33333 12284615.17 314.4952177 16464940.99 0.06728203176 18060460.9 26073276.31 25730165.45 14929239.75 9750315.114 26035101.91 2536795.093 15979640.44 20041.56695 6163419.905 16170804.41 58788610.32 14398.29886 17838793.58 43.14794867 15350939.91 4338800.471 16161898.84 15445350.98 16019428.4 0.1267793276 16362843.66 5870415.948 6347001.956 35447228.38 7389228.327 48919843.89 
0.4350651932 10086019.83 4096537.853 9936964.781 3023478.733 9368812.454 10737882.07 18978435.18 21644949.63 34342247.61 22178102.69 2912746.796 15968996.76 4639439.941 9901290.914 17330.50879 10194199.68 32551.08773 9806376.704 30158736.91 6075354.124 20255551.07 10859135.74 19956370.67 27160865.25 365614.1946 7542287.268 7427652.833 22380469.21 24445975.96 1547.911657 6521.698931 13137926.76 154844.1291 795480.3507 25602342.13 14690868.79 35608605.74 15495083.44 25840626.29 27857262.13 57164546.67 348668.4489 15450002.03 12624951.78 12458311 1789763.339 28054132.5 29379601.93 11739393.49 
20289822.82 816224.5499 24588539.95 32411446.25 4.503865775e-15 17763151.21 19083164.7 2457890.932 21125692.68 16504686.59 29037107.47 1403884.072 8836815.133 16.48059328 7207.790817 8950970.335 12671190.4 132.1869784 19020853.98 459478.9603 11418863.59 28581673.26 14578207.04 6159230.501 17002666.16 7819942.985 20912834.69 28029427.83 23154989.69 18691814.11 6677797.067 12408827.12 10108701.7 19224884.36 20755574.12 125361.5171 29.9613688 17606148.13 26943389.42 251385.039 46215852.07 28591942.49 4370697.184 23190392.38 18583752.88 14309518.66 9176489.152 11519061.85 26569222.57 53124281.68 
28404560.51 48492987.44 36404410.81 143.5389144 31141472.69 17074635.33 11970023.84 19774199.5 26604762.45 21959675.8 18520175.15 16099589.05 20630506.29 7525445.367 28832574.5 15780330.05 28348306.59 42709522.14 287617.7051 9899093.426 11248199.27 4051143.53 8248671.99 33018123.71 22840500.24 18545275.9 19985130.61 11943513.22 15301608.44 7591735.211 11038199.24 45440475.05 5367982.833 16533051.27 7116798.852 33473479.69 9964931.876 8575661.662 8381550.115 19491368.92 27989385.16 5486925.903 15137042.94 19932656.02 170.1067051 13517275.6 37576500.68 19326832.02 16177908.62 178771.1596 
5655874.591 26703322.68 22528561.9 51604.86902 7104807.159 11017960.89 30126545.39 16099768.69 56504816.84 9551955.499 20527935.11 29788912.49 0.0429700058 42761570.63 279.79982 10743832.25 17053045.07 14947.83424 7363279.778 21604984.71 12925672.28 8558378.887 7787398.182 9839173.605 9069387.963 17929392.93 19858.21049 17149420.77 13115409.53 32656519.85 1.035015613 7979739.786 461299.7274 26418993.85 19307358.14 12001663.83 4730.173427 19910480.32 40197886.48 23371900.13 12070462.3 10776862.35 14405240.82 17643279.26 27093615.09 763169.76 28947.96742 12679464.41 27308979.7 0.01049777395 
26780402.52 16753546.63 12327095.1 11315434.88 32913033.05 17836169.17 19302010.78 9711.170522 30610598.14 8987795.705 19122549.73 12423208.47 22446661.24 7851759.507 15981027.57 19163413.79 16985928.47 7654813.737 13602854.4 23790688.03 27485367.64 56493.69792 17283137.76 10718024.6 36593654.29 34999946.92 14062.46382 20110209.01 30734284.09 9912372.65 12917800.26 16650707.29 9137000.233 20043226.89 15485546.84 20456282.03 7907042.742 15703809.4 9087777.534 29784334.19 1253.736165 2595077.026 10368878.17 39725357.76 10560152.61 10579686.07 8256328.179 9266941.127 2432854.209 41788.59588 
37319070.19 6978633.604 938.8845432 14958445.1 7172548.139 42987299.66 10413396.09 42242395.48 12278423.04 8021191.72 9293883.998 34270368.21 3802037.926 21487743.24 37040266.6 54423663.14 10765162.83 20323754.78 475288.3553 13203531.59 9541413.528 9757025.821 11493717.5 25134560.96 36910678.56 24952501.48 5845431.858 15462406.09 29400418.89 18940918.64 22921743.64 20686261.02 6615549.805 14068159 7336298.506 20583472.95 31817497.71 17980578.67 8753387.592 20.60977813 39409866.49 443744.0302 3198.15273 14404971.92 31286066.35 8652266.105 26137429.96 43626841.01 10769936.88 0.0004029350709 
22901427 14358239.7 7179131.43 17873761.06 9617727.013 32464797.32 51180855.79 12491.8109 20650054.52 37900403.78 16234974.41 9290709.145 13781862.28 21357134.79 19360589.46 14143300.38 16792684.67 18196564.79 3558333.639 20606824.65 6021990.043 13078612.89 33493.72146 27608139.46 19001753.36 28049907.79 23912956.41 11797026.28 33627066.82 32545536.98 18593156.85 7415479.348 1384830.453 16324025.72 0.05934485808 5448502.866 5756983.765 1221.912336 19002395.68 1.250612795 7465111.192 39190814.55 8751073.916 20560280.1 49876402.54 86048.16278 8144218.351 23665983.49 1563287.296 11332428.03 
48801.98343 14335466.09 35407773.9 17062899.11 28975955.33 30458345.34 53574.67243 11104241.51 21666939.15 9790977.229 300.8470977 6230239.965 2666605.468 888719.9061 16741962.85 49681052.56 11564206.81 5087894.168 17.22868704 19424980.64 28523220.29 11529578.86 17196871.09 23640726.94 20433.40045 18232147.21 2482390.715 7911045.38 16569019.36 13467035.39 27712286.35 349183.3483 45286917.49 0.2066515646 20968137.09 9985402.791 16675965.84 20267505.38 7198.698209 25686773.6 38409138.13 16169421.71 23109827.46 30746304.42 26550991.56 24800738.83 6352747.815 44798958.24 15565016.08 22069452.44 
17662381 148567.5151 8550.98523 33954177.16 22811006.02 21309.77604 30760140.2 5954104.471 32078766.12 15613918.89 11064767.7 33911836.83 4181666.77 10572904.82 17669303.05 24660523.89 19590509.25 2916.751258 22341089.89 16173993.01 21265997.99 5883.440698 27801569.94 19348638.11 4449116.353 2305899.937 10075958.91 10204005.02 18943650.34 7384750.683 30437030.71 38624600.87 23403046.05 38766312.11 25455660.07 24686535.25 21647142.29 19214237.34 25923457.96 34970373.68 57589994.32 62127517.64 11907947.86 9335554.884 8638032.693 23634731.64 35288904.14 31229734.92 21281357.73 3020.266274 
21888162.08 7534176.822 9943453.247 19332451.02 33173082.49 16397016.25 35784503.18 7199077.123 745304.9617 15106781.39 34035084.06 37738087.31 5580220.291 13940329.89 15947663.76 10274195.14 2954.719052 12340561.3 19107119.52 3331253.805 21851628.33 21320276.35 17577233.67 9975871.074 37350404.85 8319216.929 12075479.74 22200892.55 17335570.98 2389904.184 23419650.83 3266938.714 14221505.34 25702480.21 25480918.49 12993741.13 61076199.45 37752490.21 18911296.69 50050649.85 39439455.59 41264736.89 9863748.333 19167158.29 43843685.78 23018415.27 14306314.19 20488699.18 19730002.67 27094864.99 
16430177.19 17343851.64 25817106.84 19809249.4 959496.5797 42673410.12 73739.91938 8659891.381 20327882.09 10216762.41 17252333.56 14535623.07 18958305.24 7797434.095 4429934.006 20907220.95 40708339.13 68919.50776 9983810.877 30456870.12 40781895.77 46977728.59 2738007.537 10473186.59 11788697.52 23189596.1 8252115.932 16630487.4 2332128.404 24073347.7 41273990.54 7265853.358 10141580.81 21181331.93 17468250.85 7482498.601 35419994.82 2235061.088 23360434.33 9592695.009 8816915.507 8264092.096 6956269.281 26392861.77 247.8840412 39289868.35 26683.27521 35401524.51 14192566.05 9181896.43 
33684914.22 15262795.79 27038184.29 21067760.93 17601671.58 19071940.49 13743591.24 47068070.69 375683.5416 216.9341268 30469126.18 36112524.14 9938883.395 24400345.88 9321122.924 46252428.28 6438473.792 30200080.15 8985309.64 21711064.42 18851338.74 8402668.325 22954006.96 9878896.514 26156900.42 3675615.676 17106486.2 15111033.15 14382941.07 6867212.274 43749074.56 15681532.25 21940449.57 4905199.337 18345179.96 10003396.8 9.390780138e-07 8133189.98 30884934.58 9246810.022 26946006.28 11018631.4 488933.2204 18095303.35 25789341.7 21093447.72 20515593.87 38961512.92 207833.8047 9484285.764 
18667575.57 297426.7115 27388864.28 28642780.03 17380629.5 23730154.27 0.01423236655 35461663.71 30917577.47 27599095.79 19890309.5 28469.02378 19430485.08 20512780.97 10172511.17 9042424.705 8957917.617 24033420.01 1519916.953 43106419.43 24839000 17795420.29 6630726.503 17066971.32 20472100.16 29257589.78 23272815.73 15666868.76 20054130.81 34953062.67 10619092.44 4290406.141 20572574.09 19543748.23 11330219.86 21848569.81 9757328.497 14427275.41 10767277.48 19929492.4 13231207.2 33231839.84 8533570.743 29782891.18 12143050.64 642120.4376 16119635.78 8418544.978 8624808.828 16718341.76 
13290858.7 27634364.07 15891925.82 26371755.56 19465664.48 7637567.821 17137798.41 30862293.21 19777517.5 16391147.8 32440811.22 20230033.19 39365206.48 2663.796564 9220089.105 29001056.06 48415759.45 10479680.99 23232475.77 7832287.686 807403.9179 16562486.65 16129552.62 21320749.15 4691690.419 16543292.77 9371562.777 11399382.61 16391561.24 17481196.82 26423591.34 22461819.32 14816488.17 12652980.04 11844520.71 24442085.81 7966038.059 47252613.27 38379454.93 6338559.207 22211175.11 37549565.92 6992829.104 29689865.77 19351924.74 22757154.93 46682160.76 3835416.33 20552905.62 24348707.03 
38230834.59 16114079.12 158394.8443 8751214.158 15054422.44 72695.82462 11553303.65 26568168.9 28783155.69 38711296.43 36984674.13 359.7542097 23073136.26 16501046.23 15618889.37 6470553.582 12058123 22541231.33 15069066.1 13730056.03 44088885.45 32165551.9 30024284.85 17684116.39 11500394.59 8725936.112 24431106.87 15058818.02 21716450.54 114867.0285 8943.892474 11445297.5 27832561.12 39569673.94 30775023.06 24493994.22 0.0005889634991 11807980.3 11489947.32 4376282.595 13530972.53 31285673.82 66538969.92 37037329.59 21939031.98 15284266.58 23116239.23 20302247.7 2314832.274 285234.6089 
9307750.062 14636256.42 0.0005079295998 151002.8515 30668278.76 9730790.827 20761871.9 14784263.81 9560471.901 22574367.17 47149482.7 3218445.771 23467682.21 32183725.42 28622436.65 16346837.91 42888683.71 590525.7588 42245437.11 23248692.52 22677343.44 37349918.26 7779868.392 27782273.42 4810108.384 52458528.83 7705943.905 9742620.534 34956110.3 26445763.79 47532282.54 33435845.33 6252426.962 23857609.24 27045758.38 22220834.28 22689953.66 8539568.223 24725117.11 26422189.33 16841993.36 28793017.56 22670721.47 21830443.17 51513.05891 1976008.931 11482466.82 23280133.83 8338042.731 17740287.22 
26236705.42 17141401 1755.4615 23147843.32 26931041.03 13771766.13 8408017.526 740260.2911 867.7124446 22645393.26 33635806.28 31272736.59 9450627.831 38870100.14 6048078.027 47946453.41 9424997.551 11613193.55 5088368.046 44113735.07 16576481.83 165.315865 22133636.26 28621556.81 11336813.97 18837501.67 25191524.98 25894729.96 40462105.92 41258106.1 54552.32703 26483935.98 7008124.654 13613403.06 28014530.44 10399562.98 19530742.09 8178518.574 90.84149001 19266653.63 29560944.48 84575.39152 22368344.23 10009680.95 15327449.92 31931821.69 8500765.041 8812313.299 8170682.431 14065455.16 
46582763.2 12311705.86 237.1253213 21251275 18377784.84 21512740.52 9165472.387 30243450.27 52927215.73 40504031.85 3886050.749 14728.69077 4059497.252 6626.352479 40086490.58 1.507141371 15785530.44 28073260.92 21898119.08 32762161.85 12197474.01 31961639.16 25353083.13 37959392.94 4641977.7 27221247.07 9218843.59 19063953.65 38589785 6522334.367 35406420.92 12299051.69 55923447.93 20785449.93 24800.41771 7859188.704 16678229.83 21568929.34 47004318.89 16295890.33 11328550.85 14386253.56 8298243.149 16352758.25 18682296.82 5666844.359 39502475.36 9455083.886 7.440310821e-08 9349205.079 
8522213.984 25913558 7268513.594 29533380.6 27473976.98 21.90240043 12.46454212 20826055.6 7362217.252 56500.04133 9673114.155 24647593.05 7829105.747 31117940.96 7258767.564 28020171.09 763392.8235 18921027.79 10765167.14 591416.8274 17650403.67 1392423.927 27581425.8 20991890.2 13934466.33 31505822.27 54378060.01 21539974.17 8912309.33 18333558.8 29066540.53 10503375.77 8093723.715 42561372.84 15081069.36 41268112.25 18778053.69 16739296.52 16044257.4 20957236.63 33391824.47 7534601.389 10905802.08 11343253.18 16140072.16 11227551.89 34602342.44 9578864.55 14288844.99 7671928.849 
901.3222433 8185831.941 16193694.28 32651291.21 13221145.45 8573452.839 10585324.14 22271967.49 8521956.976 18369309.41 15129140.46 16579181.46 41598085.69 4754033.32 20299130.23 22479722.67 18355861.42 0.000635966422 105122.5539 8466815.75 10838919.76 342.2720908 8071834.141 16622022.35 22773682.1 19845351.06 1240650.232 6664605.533 11726235.2 25830324.11 78.43736839 5706983.211 5171846.375 19122849.15 24040410.19 39794113.76 15501335.38 14694880.01 18311637.83 7875720.764 14595307.25 15244607.79 19866431.24 15986038.41 16414292.49 19720251.35 17294611.22 26754479.28 94732.31344 43466601.56 
2005160.699 19566626.3 119378.1012 34032780.2 10133070.72 54145733.92 26619551.21 7267370.349 28289588.57 23468956.47 42230208.66 19985679.15 29915256.62 7894132.815 19840860.43 16720323.6 10924063.33 15946636.96 24113034.6 29195617.24 14882720.76 1.256093655e-05 27311709.49 7441100.834 17899844.59 50368043.06 26356075.33 27572819.09 16662959.08 20396372.21 9106628.179 55410585.24 37804942.52 5512.573858 20723460.51 46614536.03 29604925.63 34950587.03 1127.199985 19444926.28 5327242.363 39870330.84 18605370.11 14071794.4 2924729.721 8137308.754 28638158.08 11655506.59 8652619.44 2562130.276 
27172084.99 43387653.79 42024217.98 8602662.31 32977586.97 25709618.95 28671563.17 32927280.15 80.37638679 32209210.31 42867626.78 24637344.99 19876878.46 8197926.592 18149132.81 393627.6481 28679624.82 31703850.63 25003804.19 29561813.85 26154629.88 0.01825337407 8364840.645 1424066.346 14954531.82 9537624.518 10163046.28 16569752.3 20449100.2 10743665.81 18230973.92 16486437.52 31364195 17587215.57 5214561.97 33551323.03 27655517.69 31913166.81 10117819.54 43711.22585 17507933.79 23059192.33 25949405.5 803916.6399 10440432.44 28042136.71 15204701.04 26573833.81 27652980.34 85417.15414 
9535300.644 9406564.968 11326171.14 90.28813707 18454878.45 18017179.67 7667225.911 343159.8093 24432239.48 19775416.56 21578799.9 18426921.63 81.84972291 4048.407872 25814372.51 28547027.53 34037020.81 20480403.94 17753971.02 16990494.68 20044.49205 52339333.41 16338714.64 2745409.03 22389899.33 40288395.66 9991455.765 12527.98327 34788067.16 16562245.85 9701771.287 21302636.12 30376498.28 21442764.73 43225245.03 43331009.54 54286714.39 12866759.74 8189467.221 26978777.43 17442931.38 43151828.74 13836932.43 17560166.02 46036450.93 8189069.444 38506182.67 16099863.21 7490333.118 9249137.52 
18359745.37 12572421.33 2971.963696 24228622.89 15635219.11 21080299.81 15059952.13 16824249.97 13599184.93 461.1691156 27366531.09 577768.8288 9099311.864 34675177.62 28360841.58 20193689.84 18245307.44 1.529511429e-11 60102970.92 5395272.675 23435769.54 927483.5182 15904804.93 0.004326415462 8543717.441 11461417.69 19252489.3 17553722.63 55125057.46 44514038.97 10619246.94 17276237.64 22495397.55 16081279.79 27223886.36 20205876.92 29093996.86 18206286.46 8644317.012 3678952.342 16855649.12 23652.64791 20267312.47 40076897 16335019.24 36965413.41 19306501.24 8099831.437 0.01339090184 12454645.37 
11183593.13 37057089.6 35945567.64 20007790.23 26716165.59 42303205.38 7922027.955 37821207.51 11417364.5 19607620.65 30027134.34 7024552.786 37302980.77 11180906.43 10038885.58 13295165.06 31707144.28 36327678.89 29614143.66 36372437.52 8668384.145 8280343.984 14170203.87 36819759.36 84121.65867 54047713.77 21736850.44 16296964.68 7618150.878 8117545.095 8593226.258 31874494.29 13221519.85 13402129.24 26644635.35 9297987.816 38997942.37 3712.526885 8156171.136 17728583.38 41048763.01 4180893.248 19882124.88 1198.394674 20550316.75 15173016.89 18180786.39 28806227.32 16105378.69 11222082.47 
7506852.765 18199694.47 8087534.128 4983.086425 6579.148131 40598236.79 26639986.66 28413946.76 8225610.076 19800230.7 30180429.58 15718048.68 8303237.372 18863690.13 7105211.2 36344541.54 10453476.65 8413380.39 15.04927725 20519368.91 24279312.83 8478000.979 5.197060024 19107391.88 10066333.95 16933822.98 20742616.29 3363530.623 44.73571237 28303605.53 19856463.01 22662749.32 32832458.64 509927.9599 28405114.09 24142265.88 6882604.703 52443417.53 16425210.34 188.4562316 2.277648572e-23 29476267.89 26694580.82 16063071.65 14835120.85 31150764.29 4095838.928 18020944.14 18266178.24 42120679.72 
# Errors [H51_split_2/H51_split_2_1570867080.x_y] I_err:
20714.0794 19737770.13 176986.0546 13115922.88 35287.39544 17367578.13 2700209.965 8840772.523 89025.63975 18398338.21 11785973.06 12675188.93 11542745.8 10901344.29 8472975.983 907.2715379 16871637.41 11744922.07 13461853.14 1.395356847e-05 0.000456643839 52.55913058 17538884.15 11235495.34 10075630.84 2562154.443 12712905.47 18230108.14 8962179.421 12538572.51 3852175.809 20035796.94 18308379.92 0.1493504717 14594292.53 9822475.491 10976591.16 9210457.354 1.223777988e-11 13645879.78 404387.9116 14265675.18 14166906.13 2473558.301 7976685.464 13025903.61 10142670.43 9546588.762 1329816.77 12643448.57 
11743996.61 21584538.76 17130794.03 11814805.4 2332.323887 7742876.306 2689750.699 5791.710075 10975358.58 8389511.516 8655560.858 15638336.84 282042.1192 10032057.81 12218959.9 11388228.7 11103803.42 16045106.15 15290237.69 11664988.59 105513.2175 12347960.52 225949.018 15700565.25 6810999.967 12349198.99 8749765.453 940407.5466 16886457.06 10681928.88 8811334.825 11169111.55 10426301.47 15062821.29 7781576.716 1174049.579 3925720.103 10936146.4 15226702.11 13679995.14 399170.1936 40406.40371 10918732.69 13968900.37 14425536.15 12160516.03 17554009.87 5346852.217 13717656.31 9181701.761 
7644997.194 6419664.063 30912.39166 7765237.663 208393.3075 180737.6308 11189314.09 19271776.11 10875371.68 12275890.97 8177962.463 13280945.93 21199694.05 9212455.165 2613440.308 16288014.46 230764.8703 3446425.181 6618351.791 9182671.098 1060127.954 16962925.69 13181957.69 16633573.78 7560010.921 10193298.94 9546142.877 14316734.63 8514245.826 13244227.06 12070133.48 9430290.436 2443.360947 13617444.5 9162715.926 8691303.279 11695411.74 12894937.46 15283598.52 13026830.45 6.335186939 2841536.11 12395549.3 10927301.88 13407955.68 10194066.1 11799342.9 17842578.23 8680318.125 12414077.41 
18042886.44 11796079.21 6234937.421 8680488.327 375001.0113 14511225.28 13027942.04 8663624.541 13831363.27 1828.691758 19583220.35 8845969.852 14449154.66 12168791.58 7897095.53 11433458.07 9908977.048 10466273.69 11636222.15 12591572.46 9261703.494 9880306.912 5590247.372 15613626.56 13530872.01 17293341.1 33748.04837 11253238.84 7632098.834 13110753.65 13307137.59 16451854.35 3392.048516 15925614.99 17782054.71 11859650.4 8388927.077 16187202.63 6021686.272 16574684.5 10100706.98 12014877.23 14189588.49 8852926.888 2730286.587 15946989.14 20301109.73 26840.37083 7842053.702 10235910.47 
8670545.947 10285493.93 14610694.87 17371662.6 11140742.95 10147961.27 10238949.58 18671316.3 5984921.686 128558.7274 4494711.093 11883306.24 23035532.56 13577804.99 7691234.974 11818716.32 9224844.513 13410806.49 13423130.32 13241651.11 15228663.36 29594.05683 15985707.06 11452777.52 14782606.25 6871257.652 11116125.9 15028079.29 9623502.019 8311283.596 14849637.84 21879324.98 146957.7998 14646742.33 10313682.79 9950414.739 11201970.03 15975875.22 12028702.35 11225025.62 13310793.95 8411146.69 15251164.83 7651907.922 5090751.222 19325424.56 7721.726514 11514787.53 12561027.93 9141818.423 
12735658.14 41840.38996 34962.72171 13274130.63 14544636.43 3057194.829 10451762.21 10384252.22 14544174.37 13506854.79 14139801.26 11306820.71 14518258.65 8692114.039 5726364.026 12601429.6 18153206.68 12409948.93 15942726.68 8773066.037 8961966.557 6966830.223 18530561.01 13636731.02 11912534.26 13327217.14 17821266.37 14446799.72 10172924.81 3176490.493 10894861.8 11069316.46 18264452.12 2759135.602 12704391.46 8667948.547 15276735.46 90589.64446 12895072.5 7143508.01 15056164.7 8015926.399 16193154.74 12119461.26 8189055.698 4166026.517 7172833.031 15477288.04 15262906.94 21265466.26 
10465561.94 12843203.14 18124.8605 9524660.796 13032550.98 7802660.72 10240424.83 18836286.93 11355113.42 8003774.075 12701878.53 16999880.4 17317850.48 11401867.35 13277876.58 13208358.08 10344252.42 15179606.52 4215399.914 7409722.451 174149.2417 84.00666359 13601338.58 19639219.79 12581273.7 17091427.63 2581340.542 9061353.048 18606350.36 14057873.12 13820804.11 157839.429 14139729.5 12415459.28 3137684.648 904716.0856 12021334.98 12262355.55 18840788.01 17168686.54 20783637.74 6803526.284 11955365.25 18294229.37 15064078.55 4933691.639 19881320.04 277304.2279 15858157.21 16937887.44 
410852.3509 23928.38055 12839488.34 10085795.19 1229559.932 14535542.33 7753563.937 13628199.44 15149277.52 13099066.37 6143312.235 3768525.339 9801813.979 12924506.84 9294022.281 10609125.07 12564190.3 12915355.51 11543660.4 13124221.69 17758790.9 19199466.87 16249215.11 9269628.121 17265381.02 15923810.21 21479802.9 741865.8037 13826332.88 16503127.63 9994347.803 10741792.66 9977657.625 1.949993309 7523164.214 11532569.84 179.58662 12594578.14 11187707.92 9492755.594 1714292.143 12503190.8 9086614.769 20117592.55 8213426.566 23110051.24 13461.29429 11741197.93 16115698 2465.220363 
14122749.52 15295808.46 11980945.77 4.756802199e-18 5740169.974 13639230.34 1751740.781 12705253.22 12643644.31 17430194.31 11217766.58 9316840.4 14619359.64 2482235.372 15610322.28 9374546.37 8460584.102 10940530.62 10220669.45 17073164.12 15813904.79 3793150.301 16544035.94 17482061.42 8545823.058 12564347.49 9988638.298 14097012.11 12795678.93 9776274.77 1.63656733 12778750.46 12551789.66 16793937.23 15171220.72 10392252.49 17781687.35 16744134.27 1.311528181 11436011.72 9492876.484 13731484.29 9324080.291 12310525.65 20719603.58 13189938.5 16149361.29 11763321.14 4.841728211 8205117.083 
18098916.69 10943763.8 17522251.61 16273397.99 1407209.004 20842894.61 10890887.63 12176784.4 16783800.86 8742.595912 14474283.35 36814.10592 17481812.75 443.355668 16114871.66 16162969.11 10875614.94 18528644.82 27752.47085 18043784.26 15664569.69 15254978.94 18448857.87 11439183.97 14038837.69 12654017.94 10239257.4 10007567.89 13008354.08 11929886.29 13691425.83 11760402.9 13085253.8 13604780.59 1.323157522e-06 11402881.08 11803977.2 17973606.53 197818.7894 22.49498997 14543605.67 4412623.999 2648914.496 16378017.34 14529740.95 12393091.2 12562293.88 18203081.87 7576011.58 3948118.981 
9504399.012 9777018.305 13524379.41 12273437.86 11173566.89 12647775.12 12783917.63 10834314.31 9074540.145 16252324.98 14812057.67 16275486.4 9779179.786 8031802.052 11495635.87 12373822.2 2354055.693 4623866.744 17116749.76 8034026.336 0.6925252914 15319703.48 21463592.92 14911546.3 14743474.9 7701338.097 8628651.12 392944.1176 8403154.206 14698358.04 14147272.83 8021455.379 15531517.86 15410234.36 14051631.91 14762500.23 16606433.82 8583622.79 8880688.379 8983160.875 9233403.882 253861.0905 16857109.54 23065891.71 17791463.33 16035740.83 11254257.31 10578785.61 9088162.19 9.109070411e-11 
8995955.818 9109017.493 10503545.23 22419384.77 16083050.6 11259694.65 12118149.12 14291050.88 7338.797067 13855601.87 9965247.77 13997044.53 10998246.87 37.45112052 9844992.254 77.98318426 9639518.226 15261181.1 12632475.59 17596389.76 12626763.54 14076871.83 15672198.28 9312130.734 5777237.999 15662141.85 9032394.484 14337844.07 13094389.39 11450090.72 18107426.07 78617.58508 15806758.4 10503447.67 9053914.016 2000839.902 7961850.934 12751444.48 1233055.302 15010478.56 10759034.76 18554320.77 13554984.19 3141479.961 19438145.51 456.7637192 13342810.62 297851.2652 11947924.09 549.9558321 
16152450.27 70999.37145 19829259.91 6218527.331 15749685.63 14618.69192 377768.8265 3654135.751 11261727.64 11437868.19 7723607.933 16115080.04 36813.28654 9365485.076 18786050.21 11957061.76 9584448.471 10884981.11 258.611494 10525763.1 17265192.34 629434.8117 8517948.364 14677252.26 11691064.33 10841487.46 9656919.807 17844598.24 12069429.69 14575972.71 14175217.84 6187601.481 17716374.99 13970562.16 13854162.29 11953147.94 15436774.41 10804032.46 16459204.61 17627986.18 18056402.39 10839655.9 10374864.2 15970300.66 11299599.12 5441152.723 807679.5621 14558178.77 14395444.88 335.7834815 
19219.98543 16288188.29 12647766.49 13156005.23 8826893.574 13003049.82 14837897.01 13379339.61 17020047.88 9895599.606 18734.20069 12811063.02 2651761.684 7892361.402 8400525.526 16521094.81 20.86898514 17059082.89 10596278.07 10692839.01 8458901.784 16922150.28 256479.8488 270760.1209 5511250.74 15424741.2 13383304.91 18699982.21 20222278.84 12298776.91 12530537.24 11014233.65 9391111.527 1214217.211 13600039.29 4447101.056 19431729.71 11375927.88 8936469.527 18330444.8 354409.0143 21446790.48 11480812.34 9212631.154 20730464.25 13320447.36 280712.7034 10498812.03 15629521.08 16900907.04 
12045934.22 15480215.15 8266235.009 21191256.38 9696571.516 19183173.01 12741124.1 17785426.2 8364976.531 13019538.86 11584341.68 15734262.37 14193032.95 20234378.37 9544165.086 13816889.86 8356548.546 13291105.07 16651601.74 11485959.95 1118304.763 12165661.4 428424.5599 9497886.364 71790.21487 9089306.451 14360770.45 15306680.12 16202088.53 7827905.17 11219052.96 12658147.66 15201432.03 9948061.094 7851823.888 11494392.74 18280831.47 0.1785360191 5438476.976 12211070.28 6802022.024 19774475.52 13689674.7 13599713.92 6995016.872 19164182.9 8831008.178 704067.3254 2164493.551 12207663.12 
1139937.554 13295037.27 12946684.33 2565194.735 3900277.873 11062614.87 14540672.7 14061018.61 7778881.697 10773477.43 12294364.19 2524353.773 16879568.66 6905967.042 8077277.568 7632711.924 18639848.84 11521014.16 6569694.949 14894496.58 11257405.37 9048674.763 5.69325985e-11 12407552.42 12691499.81 8748990.115 17055602.23 12513784.06 9973734.463 13069310.11 119992.6366 1317.359732 11253716.58 12332130.88 20448693.09 3.306795107e-22 14561985.15 7853023.217 877598.8473 386135.8541 2472412.189 22216196.99 10361036.88 9498348.448 9789636.477 6207376.983 9220200.82 11171423.26 17961837.35 16957019.42 
15327648.91 16239239.06 8916067.066 17961096.98 2.643333575e-28 14495533.94 10495931.18 14069959.16 15501354.83 17534526.89 16461081.71 1124672.873 8831503.186 14213462.66 12096121.72 13290396.62 11406301.55 8739084.257 7920496.991 14570380.62 142.7148348 11587.84347 18544084.37 31691.11715 15705.37175 9590735.698 20171919.62 11665053.91 14684819.02 392550.5781 11545762.37 10758146.05 171523.0365 17189019.12 14452285.82 9.261625359e-08 139.6084891 9098429.007 17382178.15 25805180.69 7593943.121 1181829.003 18747.39107 14151255.77 560.7613736 78.54910777 138659.5186 224797.8788 16077946.45 696432.916 
8148002.089 10691726.35 9726222.667 8584344.013 2236142.956 11525988.7 0.04769222905 8046280.001 16284061.19 13427296.24 9700231.438 6104097.577 11218415.65 11458544.26 346.7326992 11736201.67 3773534.585 13563234.34 10617346.97 11355364.87 14182796.24 6.755172858e-21 13737733.59 1309036.942 15512767.29 17182575.47 17643355.35 9754411.89 12489983.85 154.4012232 9572757.382 639128.2864 19192969.1 8.497549547e-19 15969247.86 11044644.62 14646699.34 312100.7637 11261477.9 10741530.07 7669133.664 12656535.94 10080776.41 16397107.58 8391046.564 17137775.64 11077.99449 16503383.5 12892290.24 6067097.846 
8719245.363 16220350.46 3086407.553 9355722.528 7950179.494 12289442.82 8732878.308 15099016.02 13704614.59 8488041.353 3766457.473 16259041.78 9764456.246 2065242.346 12890463.83 9897764.937 12513507.62 11230748.11 17351857.19 13110540.77 13096163.31 18032482.81 282157.6828 14296243.89 1916.391594 8174569.128 8953780.981 5994431.908 12511535.35 14537234.48 13893165.64 11248037 16339216.44 10452841.3 9132840.213 7617844.355 17253872.67 12138164.29 11367981.58 14632702.79 3361210.392 147.6007253 15385868.38 21680430.96 8718184.43 12758013.33 14804514.67 12181266.22 16391944.82 47365.12856 
13621200.24 9653261.525 2580.436762 4.934599396e-08 12842508.85 12243856.98 12745626.78 19767250.93 10939336.48 18410773.43 14690987.88 10522807.35 13288661.3 10864475.04 11473825.5 10301373.3 14726652.67 13716050.82 13133299.23 13224603.93 14612924.15 21480958.95 2237732.965 16085121.96 12253472.57 16504169.78 18575220.71 11601911.11 10028.7413 1738482.402 12031818.38 9271905.045 20290693.81 15720564.82 15478738 7.736070576e-10 14107696.4 14344866.05 19458759.79 10494386.77 3512165.584 8083585.032 1401787.115 17075778.5 18432648.48 10055969.7 8393288.24 6794624.253 8411677.536 16720595.66 
19715062.52 15341921.44 12645105.06 6532642.998 9012147.03 9408755.122 12845913.76 15300267.88 67520.10072 13222831.59 9502860.159 14115723.52 4539362.342 7727643.19 15764256.71 13005985.52 7073531.805 4926.625068 12664976.21 582484.1695 4912544.243 19140958.72 356.1540895 9648663.472 18599.67323 9884902.351 18773535.13 18329184.55 13481682.98 496507.5166 12463110.44 7668918.241 13160409.36 8393088.451 11362443.88 17456849.32 19346692 15174091.34 9898386.79 13192695.52 935664.4505 14430274.86 8499348.881 18193384.16 11022724.48 12880695.25 15980338.11 16605942.42 10435717.32 3.752271527 
9424260.504 8749173.472 12998893.79 9910855.736 11882336.64 16216407.38 6365090.922 7028273.945 13021507.45 11110993.81 1206727.602 8534206.826 11612616.11 14172998.38 5074857.673 14016627.26 4.901134002e-11 74247.98131 11557304.77 16392653.19 19688845.47 16775674.4 6200.614954 12369867.03 11452453.7 15156459.5 9036335.558 13050493.96 18036974.1 3269800.748 14150256.19 1466407.618 10973441.95 12601314.12 11842302.13 13775911.55 16173949.38 13368105.42 571945.121 7562574.311 15396440.82 18878582.04 9474929.58 20076415.72 12584929.09 21266086.67 12658995.8 9505570.785 16049786.1 14558025.76 
15734111.82 6503695.784 17588553.3 20533448.01 9397724.174 13333991.96 953438.929 7776222.893 14985351.78 9283973.117 12422965.12 2212121.744 573627.6637 14.02133073 2584106.282 17304234.74 13302022.52 16057668.51 9036328.17 7972135.32 9577337.852 10663649.23 11500858.32 19992649.32 15991308.84 11525951.23 11836911.87 243616.3524 10812782.55 15999386.79 16056253.66 18701620.31 10629645.08 8706704.101 13946563.52 10252750.2 14668156.16 12814947.56 13253386.5 14569825.84 19752862.85 19290100.27 11345695.75 569453.9737 637459.6044 13239363.82 9859812.521 14769768.63 16234384 18804992.52 
10026632.49 9120888.56 15350513.63 15958154.33 151392.0443 10966901.34 15344509.3 11357923.8 15753110.26 14454022.56 8994404.244 15579612.08 14494957.12 12053491.63 7829903.995 2701134.894 15586281.4 15788660.4 42965.97628 11958197.63 275.0763817 12577460.61 0.06612538237 12615837.61 14090462.37 15462742.31 11104321.96 10148449.67 15533931.95 2729928.617 11499816.42 20634.22922 6248517.539 12070091.41 23924369.68 10549.12231 12651232.19 46.1270928 11402862.49 4498705.001 12225013.8 10795674.27 11986540.31 0.1385871382 12253770.68 4605395.302 5879818.688 18352427.36 8532345.497 22534637.39 
0.4765900406 9214874.127 4250591.848 10178621.37 2520478.679 9705294.63 11221728.52 13844768.74 14292219.96 16788241.13 13493206.55 3049971.804 12832984.11 4953811.454 11069897.04 11566.58518 10612394.66 26762.62249 10742347.46 16065094.71 6365578.741 14802418.38 10925732.13 12233859.23 16360613.49 394908.3381 8063044.174 7576299.966 16584820.52 13373584.08 1305.565468 5554.518207 12013546.14 173103.773 521395.1799 15414364.45 11130764.93 18595118.6 11792359.52 15801796.08 16965833.96 23917827.49 260834.3529 11393496.83 8023725.98 13928815.14 1658963.718 17105935.7 18109336.6 12816902.8 
15022935.61 763795.1887 16434304.97 17076834.93 4.933737753e-15 11302474.39 11499287.85 2546754.345 12843591.38 12273058.52 16245413.95 1489043.731 9169430.648 18.42584754 5246.403481 9285455.553 9652479.012 98.81129802 13335948.32 491171.7123 11875725.22 16875008.01 11476095.16 4764718.952 12650582.28 8445021.572 15658858.35 15277698.93 14129844.37 13907633.9 7177727.35 8475168.878 10652558.51 14254388.27 14295181.17 94915.01872 33.49782866 13039183.86 16524788.84 269040.1395 21266565.15 17315701.57 4483722.706 14723147.32 14046141.99 10688288.21 9584097.937 8135468.105 16268898.97 24568386.22 
17057797.09 21237756.9 18169488.1 114.5705042 18336187.4 14207675.25 9824512.73 14295391.91 16179482.71 16675926.83 13939258.6 12569097.15 14428017.64 7770601.528 15592546.71 11758704.29 17065898.85 20253123.68 310662.4277 9528712.51 11673860.78 3105952.713 8686479.298 18416307.52 16705226.39 11827979.86 13528978.17 12210179.29 10192317.53 8115814.623 9082273.655 21544253.2 5602876.705 12062314.27 7796057.332 18626572.23 10652960.27 9262772.762 9453124.087 14045427.49 16601926.49 5562345.602 10312968.89 14504577.97 181.8517169 10823057.43 19658422.33 15217791.29 11885939.8 206427.1537 
6323459.993 16036204.3 16686428.86 55363.06195 7779276.455 11602330.34 15359811.6 10220244.29 23877667.66 11248642.03 13206649.94 18056862.43 0.04447117143 19927208.33 277.9665853 8195101.448 12636109.22 11713.29888 7953179.191 12610731.66 14159362.91 9243986.436 8706575.851 9527984.515 9048583.207 13627001.2 21229.3196 12336140.4 9829785.896 16994823.5 1.106771323 8712803.135 472325.3536 16202906.74 13252106.21 9539506.195 4793.769801 14969454.99 19122258.4 14067018.95 12120381.09 12014351.28 10402744.24 13052137.63 16680285.41 776589.7575 24959.6538 13293305.16 16525492.9 0.01049777395 
16617715.88 12428365.87 12883973.5 9872967.57 16995833.87 11840020.53 14080759.27 8193.650379 16478408.6 7733253.945 14531242.39 10468434.6 16637650.06 8263956.625 12494869.84 14300822.49 11806146.3 8207157.629 10719089.37 14302249.26 16583815.84 56787.22622 11046222.64 6629506.905 18952990 18678952.32 9785.120771 13285376.01 18536787.44 10484848.81 10461637.27 12286160.48 9457692.94 14781256.62 11363278.11 13451361.03 9128355.942 11579532.12 7304580.517 17733582.64 1327.028898 2772179.834 10820918.28 17669986.47 11382436.98 10461248.92 9043983.32 9820628.099 2400324.845 41537.83173 
19572530.3 7327583.806 988.9692515 11138875.95 7547682.334 19911364.16 10080512.54 19057898.39 13727694.29 8764118.452 9523850.322 16467938.28 4164923.873 16301443.56 17073332.69 23060307.47 9130991.84 15458797.18 496289.3821 10099897.76 7624037.819 10688286.27 12345278.37 14197959.81 20353564.86 15610110.76 6199888.738 11043880.47 17413490.13 14051002.35 14031883.21 15570979.6 6862416.733 9517086.2 7473386.348 12712420.58 16868200.35 13105027.48 7743278.271 21.95798097 18858830.17 479278.2944 3299.293061 10754027.99 16220493.19 8445184.757 16249808.96 19324457.43 12431807.59 0.0004352196183 
16218585.28 11313173.32 7462227.973 13422057.35 10137950.83 16925797.86 21861164.26 13223.6058 15381712.66 21010309.48 11139431.03 9727912.343 10450381.45 12848563.12 14403972.89 11164467.27 12650598 11894006.73 3551292.972 13397233.68 5725736.302 10040377.03 36689.79101 16799188.17 14108368.24 16522908.59 14416085.5 12697245.04 17341444.41 16812939.91 14219221 8002538.113 1220739.926 12180452.9 0.04520418544 5743068.137 6058371.598 1338.537463 11824742.82 1.349853353 7686538.585 20101910.94 8911872.922 14882765.3 23095339.8 85691.67858 8143354.27 16592118.63 1657510.029 12667973.81 
37093.04511 11339822.77 18165047.51 12958579.38 17451548.02 18616928.99 38911.73311 9854632.226 15622012.23 10027497.07 309.5968403 6819746.59 2850698.877 689091.5009 11889429.92 21479176.39 12189680.34 5448609.783 18.60736828 12371876.23 17706173.75 8502426.679 12673131.52 14422614.53 22052.945 11856862.14 1728890.934 8436366.935 12341804.54 10628483.04 13927500.12 353752.544 22174357.88 0.2310432568 16020384.44 10937694.1 12221257.82 14948632.33 8816.568712 15263416.51 19402701.87 12460027.45 16940295.46 17563799.08 16002010.85 14699891.79 6856793.55 20644117.31 11679265.85 17070281.26 
13036281.74 157401.7287 8971.446569 20534999.43 14824128.35 21741.38679 18647618.55 6431167.84 16226219.86 12096374.88 12776493.23 18366774.25 4407863.605 11290006.92 11899438.13 15311286.79 14647901.01 3092.212603 15375791.84 12104233.22 15963457.25 5346.149544 16202395.1 14573304.36 4595343.115 1730614.948 9982952.63 9162883.286 14138478.69 7352589.502 17795959.93 19239493.78 15485152.1 18872404.78 15757422.3 14847688.43 16487078.82 13071676.35 15636134.31 17461205.91 23227815.76 23752812.21 11866489.13 9836294.433 8604479.242 16080740.01 18509593.82 16878314.21 15968707.21 3699.055629 
15962351.45 8054271.677 11117118.7 14323582.49 17399442.25 12299073.82 18594141.03 7199077.123 678627.9395 11626049.76 18010699.12 19815190.15 5617276.819 10487569.43 10754803.63 10527151.32 2697.113128 10851913.59 14351199.19 3511427.51 15835050.94 12902779.21 12218307.69 8474170.267 19392020.2 8890051.922 12653698.55 16072558.25 13161337.02 2581391.55 13281605 3524068.885 11952124.24 15341998.07 15801081.14 10822426.78 25737484.92 19385706 14208391.62 21073769.91 18041553.93 19066642.36 10461571.34 13956427.62 20770935.45 17049345.88 10460348.71 15788735.65 12457608.63 16340688.65 
11975948.33 12177695.99 15553635.75 14174012.48 718058.9016 21981065.85 79648.21609 9353249.22 13940147.09 8326080.795 10842556.41 10758479.07 12136173.57 8215382.248 4828757.693 12970862.86 18703709.38 60465.02881 10566212.48 16332104.64 19363826.01 22273871.34 2886113.339 11195982.11 12363898.52 14564113.32 8648516.704 12289248.09 2120896.252 14409434.87 20554453.51 7847938.098 9592174.027 12768170.11 12931671.06 7936354.417 18397237.3 2471840.273 13751101.62 8198713.293 8534168.716 8926239.664 7436409.861 16120011.93 267.5206621 21871613.72 26201.55847 18676587.59 10508021.47 9902212.143 
16627468.13 13392276.06 16158019.72 16156690.35 11114989.95 14110836.41 10146661.02 22058091.99 405784.506 230.0577509 18569371.34 17656548.3 8548366.818 14385028.25 7426017.147 20228423.24 4774798.261 18154778.89 9705243.457 15936933.87 14165309.2 8758065.556 13903573.88 10560127.93 14558739.19 3898349.136 12972439.52 11314748.65 12300700.41 7133330.006 20852427.36 11826050.08 13659418.8 4941131.384 13283544.26 10693980.36 1.150130981e-06 8584417.227 18518067.26 9532490.291 17328114.12 11037149.35 522453.753 11370444.57 15474164.49 13485962.82 15104114.21 19862758.37 176352.6148 8455269.378 
14554023.59 321257.4989 15214328.76 17618605.23 13201643.7 14331886.26 0.01643160142 18539197.88 18847324.64 16838284.4 14402305.95 32867.78704 14846605.61 15660400.69 7654925.41 7107946.209 9812742.386 12736799.94 1612111.5 21842393.37 15251930.05 12966499.72 6989312.057 11158153.57 13695052.61 17757058.03 15172554.65 10552049.66 13622271.97 18599880.47 11360858.33 4540097.769 15158533.62 14578925.45 13876610.76 14810989.2 9588632.779 10783718.62 10147700.83 15046951.43 10033010.6 17249988.46 8672585.065 18168466.82 9546286.771 666917.4916 11612793.81 9378612.056 8276852.426 13259851.72 
10264703.37 16736962.07 11726094.32 15681187.21 14595702.41 8366010.488 12231243.22 16694774.74 14819311.74 12149856.89 19655234.87 15026185.12 20829912.43 2978.215098 6848939.951 17505474.89 21395034.5 7864001.799 13868601.18 8579770.863 884464.118 12683349.34 12226630.7 15740073.35 4323033.598 12311056.92 6596829.751 12186164.29 11980176.67 13041025.49 15895118.78 14971262.4 10938576.77 9816555.136 12562966.11 15445170.32 7231992.769 23525074.2 17409569.63 6722519.84 16339613.15 19312348.86 7271625.496 17790684.73 14875895.35 15414146.71 21851039.69 4093483.065 15378844.41 16413626.9 
19052624.5 10025661.51 162568.8151 9244018.51 11052870.5 70862.63688 12176952.57 16291112.27 17903566.12 19900234.77 17840555.71 440.6071232 17201703.59 9742722.463 9960158.592 6252557.526 10538173.58 15671455.05 11144862.95 10221882.04 22741736.62 16747707.25 18132101.81 13459608.29 11949831.15 9150445.355 14831643.3 11232701.62 16051389.59 123342.2984 9036.818673 9007203.859 14695002.21 20626972.41 18491722.11 14637441.16 0.0006574235772 11146579.17 9024357.252 4043553.857 14176739.5 16596537.72 25958560.88 17326841.21 15530169.06 11279856.21 17224062.46 15079942 1886861.938 301167.0338 
7070269.36 13103688.71 0.0005317891719 136578.1313 18691703.42 10659547.27 15836295.78 11229896.32 9847333.531 13130347.24 22052488.22 2963298.978 17223024.87 19434797.84 17307963.88 11523059.27 20186135.18 546508.4596 21400271.94 14463435.35 14666705.5 18312864.82 8403217.997 15451189.14 5101804.676 22367813.27 7874481.585 8164243.35 18129975.22 16045747.38 22157503.59 17301686.27 6746196.963 16930726.99 14816408.92 14421767.8 13491093.25 8893542.535 16677079.84 14115857.57 12863290.02 17372475.36 15133583.93 16130958.56 50095.82608 1623538.182 8843910.97 12800437.85 9006008.132 13404020.95 
16560738.92 12642956.9 1922.97822 13388998 16318499.49 11431870.13 8776572.878 797192.5205 967.1813121 14037393.42 17764351.29 19084684.84 9560849.056 18855869.95 6532630.26 23354164 9240826.654 9543689.867 4098063.263 20385383.16 12861810.99 184.7791587 12959343.36 17510830.03 9416991.528 13633057.64 15260090.82 14867407.36 20927533.1 21212454.75 45319.55396 16159633.55 7412930.141 10566366.07 16790506.95 9657049.057 14319893.23 8959112.634 96.27779761 12893522.35 15245610.61 87904.30405 13381460.94 8178878.162 11749905.23 17436349.9 9232431.919 8377841.475 8950523.979 11140480.91 
21544865.56 10933703.8 259.7577722 15401451.87 13394550.82 14205825.21 8807754.01 15730216.08 23446235.69 18141602.86 4194470.767 10561.21211 4258513.392 6614.367932 20808265.7 1.706596749 11769108.39 16786383.48 13729188.6 16768329.2 9809839.012 19115411.02 15299998.4 20246489.79 4789509.153 14257635.55 9852483.551 12594188.29 16497900.57 6943747.316 18538608.76 8682722.792 22352884.05 13566092.52 19516.26527 8245381.428 12576912.5 13424172.81 20758618.63 12604562.31 8897155.493 11630407.9 8601910.276 12077538.88 14100409.72 6335709.838 18996662.22 8494978.811 9.112482505e-08 10450180.22 
9527966.794 15678753.96 7774902.37 17947402.71 15984968.2 24.47597888 11.87929863 14107906.03 7951451.565 59926.6651 10059810.02 14934619.02 8303343.747 18782787.54 7840365.057 15876748.46 800652.5918 14015536.57 11290602.54 612785.7643 12992771.46 1525289.864 16719721.48 15459889.71 13637040.01 17244812.88 23012391.82 16319781.12 8408971.387 12301329.89 15260145.69 11190310.46 8652463.084 22266011.99 11127793.34 21638525.7 13847953.56 12359829.1 11876035.9 15336275.87 17347728.53 7888948.255 12192967.57 10379210.93 12398686.08 12299166.83 18397435.35 10346345.13 11138434.04 7671928.849 
1040.75728 8800686.758 11884363.51 19636534.63 11180357.38 9164998.649 10105489.07 14711965.06 7635396.533 13654286.03 11416747 11973751.22 21667995.55 4451713.791 14771082.19 16480444.43 13860385.74 0.0006660246238 113542.405 9274931.953 11688569.44 382.6346374 8684198.237 12475707.26 13946166.94 12637038.37 1387088.084 6074116.033 9493254.419 15343333.47 87.46377959 5701959.282 5470567.677 14291142.74 18374522.07 20172176.66 11439205.7 11433597.47 13538466.61 5115667.952 10936619.31 11555966.64 10917118.96 11693108.6 12077469.94 12135050 12810342.94 15832981.96 100871.9291 20554750.33 
2035036.075 14347090.67 98551.31539 20742745.23 10542128.45 22850297.8 16092146.08 8391636.454 16523379.87 14195258.37 18350390.96 13040166.04 17924647.91 8647589.21 15287234.87 12336066.23 9533305.138 12003362.62 14588089.27 17635612.13 11039442.82 1.538390599e-05 14794818.18 7954871.326 13212135.03 22187330.25 15806081.14 16374075.7 11686292.14 13778519.23 9550053.352 23537915.79 17070620.49 5867.779427 14974218.76 20791784.54 15975076.93 18100025.27 1088.566515 13072922.95 5327242.363 20919808.13 13770603.42 10640039.73 3264982.874 8423556.244 17071900.88 12285979.26 9345871.46 2802422.999 
15817425.73 22804207.86 19714830.18 9933483.025 15940695.93 15460360.39 17707933.7 17061658.33 84.06926222 19035043.87 22398055.54 14768618.39 13043378.31 8590665.16 12855226.64 414915.2509 17244608.44 17691236.44 15249741.15 17834213.9 15721332.19 0.01998819351 8666711.136 1482281.75 11265255.29 9872363.692 11362614.31 12407074.83 15422681.3 9290177.242 13651514.61 12281108 16306849.2 13269903.71 5188769.333 17666449.57 16819425.7 17011343.68 7411340.121 50473.37603 12913944.08 16801073.31 15623301.76 833811.2147 10635128.31 17257927.78 10921286.44 14239388.29 16648470.94 95499.26838 
9476322.725 9994305.865 12400316.33 97.52233401 13860666.57 13133071.4 8249698.209 315210.0584 14730638.01 12764300.58 16175145.02 11857187 76.00288452 4958.266779 15745526.48 17441845.12 17816557.31 15492071.26 11942783.24 11125453.5 21421.89723 22092807.19 12167254.24 2965380.672 17010625.06 18898006.91 9660176.186 13531.76851 18024522.99 12231495.11 8477411.075 15469014.74 16564207.1 13216568.73 20072985.05 19986290.72 21474313.88 10412925.77 7136315.81 16300292.29 12811474.15 19750104.07 9977905.911 12253217.1 21167994.61 8599890.916 17495733.33 11841522.67 8374436.645 10130833.94 
13235712.91 9489997.768 2937.306345 14294892.51 11246138.75 15835121.39 11290758.42 12323266.88 11797868.91 493.0104524 16603617.99 630400.7297 9826839.663 17942811.3 15505245.58 12416800.56 12911286.05 1.76612767e-11 23816678.38 6032098.228 14394253.91 885843.9152 10597970.2 0.003578400498 9552143.985 10089844.6 14999270.23 13216081.65 25092451.22 20592858.46 10234385.97 12767168.04 14819855.72 12166787.67 14751011.84 13267548.68 17762368.74 12099731.28 8166658.064 3334415.884 12688719.86 23959.41062 15133989.51 20564424.97 12140808.3 17936166.92 14386802.22 8772787.522 0.01466868576 15253763.04 
13697048.33 19534134.23 17482686.21 15125041.22 16138839.55 20684592.76 8457669.943 19806555.58 11427711.33 14603876.06 18028649.41 7572848.913 19759510.42 9586866.59 10496678.23 10753845.71 18370079.87 17638784.23 17996083.78 17766719.13 9193062.725 9257706.013 11057621.56 19271437.94 87686.46939 24947924.37 13085898.05 12151831.23 8304225.02 9075690.322 8506277.778 16835480.1 8921796.362 8912388.049 14473381.66 9862005.298 20550385.57 3877.603017 8488979.072 13068028.27 20666510.97 3803595.108 13749684.08 1280.612181 15289974.07 11690282.07 13310053.45 15450000 11917352.73 13741843.99 
7822624.266 13804617.91 8250579.064 6103.009543 7355.710027 20396657.84 16115308.49 17512074.38 8589663.337 15068820.63 18286815.82 11588016.31 10169347.38 14236824.15 7943867.619 18936354.33 10930010.59 9406141.32 16.78035717 15661356.44 16211101.84 9542922.355 3.641443377 14787952.3 11254338.03 12753467.53 15790681.98 3883870.621 49.61051011 15976951.66 13495242.51 17240750.5 17064679.13 570116.7896 17451858.33 15330394.04 7353430.494 22330257.06 12376060.39 210.4907827 2.277648572e-23 18057762.97 16174358.26 13027912.78 10673809.18 18921483.63 4421800.75 14696417.14 14015668.01 21743086.02 
# Events [H51_split_2/H51_split_2_1570867080.x_y] N:
6 10 3 11 7 11 8 9 5 11 8 8 9 9 5 5 8 7 11 4 5 5 6 6 12 10 6 11 12 5 6 12 7 5 5 7 12 12 2 10 7 7 6 5 8 9 7 11 7 11 
5 8 12 4 5 11 3 6 6 5 11 6 9 10 11 9 11 12 7 10 8 9 11 9 10 8 8 11 10 12 6 8 7 8 10 10 7 6 9 8 4 4 12 4 10 11 11 7 11 4 
7 2 8 7 8 9 9 12 13 9 2 13 11 5 6 19 8 10 5 10 11 13 11 11 7 14 7 9 7 11 11 10 6 12 5 6 6 9 10 12 6 9 6 10 5 9 10 16 11 4 
8 13 7 8 7 10 8 5 9 6 18 5 7 7 5 10 10 9 9 12 3 7 9 9 9 13 6 5 14 3 9 5 7 10 13 11 9 7 12 14 8 8 8 7 6 6 15 5 7 8 
7 8 11 15 6 7 8 9 10 2 12 4 14 10 6 7 8 9 14 5 14 14 13 12 10 4 5 12 9 6 10 13 5 8 7 9 6 13 9 3 7 12 10 13 9 12 4 4 6 7 
6 7 6 6 8 5 8 11 10 11 10 10 8 7 9 8 10 8 11 5 16 5 6 7 9 14 13 5 8 10 8 8 11 10 14 9 15 5 5 11 20 10 7 8 7 7 11 11 8 8 
4 7 3 8 2 11 7 15 6 10 10 10 13 11 6 6 8 10 7 9 8 7 9 6 10 10 7 8 11 9 5 8 14 9 9 5 9 5 12 10 13 9 9 10 8 9 10 10 6 8 
7 7 7 6 4 11 5 6 10 8 6 10 8 5 8 8 5 8 10 8 11 9 12 5 13 14 8 13 8 13 8 7 6 3 11 9 4 8 12 4 8 7 3 9 3 14 3 7 7 3 
6 7 6 5 9 7 10 11 9 14 9 6 11 6 13 8 9 11 6 10 6 4 12 8 4 7 7 7 7 16 7 5 6 8 11 6 11 10 6 14 7 12 4 7 19 11 9 11 5 7 
7 12 7 15 10 11 7 8 9 7 9 5 15 6 11 6 9 8 7 11 5 12 9 12 9 9 11 7 9 5 14 12 6 3 8 10 6 12 11 3 10 6 6 9 14 8 4 5 11 5 
4 11 11 11 10 8 7 11 12 9 7 10 7 7 6 10 9 12 8 14 2 7 12 11 11 7 9 8 7 17 11 10 6 10 6 12 7 7 7 10 8 10 10 11 11 10 11 7 6 1 
6 11 6 15 8 9 8 4 3 10 4 13 12 7 9 5 5 7 11 6 11 13 10 7 6 10 11 9 7 9 9 5 9 9 15 6 8 7 9 12 5 10 8 7 13 6 12 4 9 2 
7 6 14 5 6 4 8 13 7 12 4 4 8 5 9 11 9 12 6 11 11 5 5 13 8 7 8 11 9 9 10 10 13 10 9 10 9 6 11 6 8 9 6 14 9 5 7 7 6 5 
6 9 6 8 5 12 8 7 9 9 2 13 8 8 6 13 9 9 8 6 8 15 6 10 6 12 17 8 9 10 11 10 12 6 5 13 8 8 8 13 10 10 6 6 10 11 5 10 8 5 
5 13 4 12 9 13 13 13 9 12 12 9 7 14 7 4 6 7 7 9 9 8 4 4 7 9 11 8 8 4 8 9 13 7 5 10 5 7 9 6 8 7 13 10 11 6 8 6 7 7 
2 10 8 7 8 13 16 9 6 7 8 8 10 8 4 10 10 5 4 9 9 7 1 13 15 10 10 8 11 5 7 7 7 7 8 4 13 7 9 8 7 13 7 7 9 6 7 13 9 9 
6 13 7 10 2 5 9 9 8 7 8 8 7 9 9 10 11 9 10 12 3 4 8 5 8 6 9 7 5 5 7 9 3 15 14 4 9 8 10 9 7 11 6 6 5 8 7 13 8 2 
3 8 6 9 7 7 3 8 10 10 13 11 8 8 10 5 6 14 6 9 11 1 9 6 6 9 6 6 5 6 8 6 14 1 13 5 8 8 10 11 8 12 16 10 7 8 7 9 9 8 
11 10 11 16 10 7 9 6 13 4 7 15 9 12 9 7 8 10 8 7 9 9 13 14 8 8 6 8 10 8 7 12 7 11 4 6 7 4 4 7 10 6 10 17 7 12 12 12 9 7 
10 9 6 5 6 8 13 9 7 10 10 6 13 9 6 9 4 6 4 8 10 15 7 11 13 5 11 9 5 5 7 9 14 10 14 3 12 9 10 8 4 10 5 7 10 16 6 8 7 3 
7 3 12 7 10 6 8 7 17 6 7 10 6 9 7 14 6 7 10 14 4 9 10 7 5 9 7 13 6 11 9 14 9 9 7 10 18 8 10 10 6 10 8 9 12 9 15 16 8 3 
10 14 5 9 9 11 5 11 14 11 9 8 10 14 8 5 4 10 9 13 8 9 5 11 10 7 8 12 14 11 10 7 8 8 6 11 11 6 8 4 9 12 4 12 8 13 5 6 16 10 
5 12 10 9 2 11 12 6 9 9 8 4 7 3 9 9 13 11 9 7 7 9 10 7 8 9 9 11 8 12 11 9 11 4 11 6 10 13 5 10 10 7 5 5 7 14 7 9 7 6 
6 8 13 11 10 6 9 11 9 9 7 9 8 11 10 6 14 8 9 9 6 4 12 10 13 17 8 12 13 6 8 9 9 10 15 7 9 7 9 13 8 5 7 5 9 12 9 14 3 9 
5 6 13 10 7 8 9 12 9 14 8 7 6 7 4 8 10 7 5 12 8 7 9 11 9 6 7 6 8 10 9 6 8 4 9 10 10 9 7 16 11 18 8 9 13 4 11 9 8 4 
9 11 11 9 5 8 12 13 8 10 13 8 13 4 10 11 7 9 17 7 8 12 4 11 8 6 7 12 9 8 6 11 9 12 9 10 4 10 7 6 15 9 13 9 6 11 10 11 8 8 
9 15 13 6 10 10 13 9 8 7 6 7 14 12 8 10 12 7 6 6 10 5 9 11 13 11 8 11 15 7 8 15 8 10 5 11 7 6 3 5 6 10 4 9 7 6 15 4 10 3 
4 11 9 6 5 9 11 8 11 2 9 7 6 17 4 9 9 8 6 12 5 6 4 10 5 5 7 15 9 6 6 5 7 11 13 10 8 9 13 13 12 4 12 10 9 4 8 10 11 1 
8 9 9 6 11 10 10 7 10 8 5 10 6 9 4 9 10 6 7 10 8 10 9 8 13 12 7 12 12 7 6 10 14 9 11 6 3 14 7 8 7 7 7 10 6 4 5 5 8 6 
10 9 9 8 9 8 13 12 4 5 8 14 5 7 10 9 8 8 9 9 13 5 6 12 12 10 8 11 11 10 11 9 13 13 9 7 12 9 8 7 18 6 4 11 7 5 8 11 3 6 
5 4 11 7 9 13 14 8 10 11 13 10 10 9 9 8 6 9 9 14 9 7 5 11 9 10 9 6 12 15 3 6 15 7 7 9 9 5 12 6 11 14 10 8 8 7 9 10 8 4 
5 10 11 9 10 10 8 7 10 13 9 5 7 11 10 16 9 6 6 10 9 11 11 13 6 10 11 7 7 12 10 12 15 4 8 5 8 9 2 10 11 4 12 11 9 8 6 11 6 4 
8 8 6 8 9 7 10 6 12 11 3 11 9 7 14 16 8 8 6 7 7 8 17 10 13 8 6 10 8 10 10 15 9 16 11 13 5 7 10 15 11 12 10 9 7 7 12 9 10 2 
7 7 4 10 10 11 11 1 6 14 10 14 6 8 9 7 11 13 5 9 11 9 15 10 8 7 10 12 7 6 10 6 12 12 9 14 8 10 8 8 10 11 8 11 10 9 13 6 10 7 
4 13 9 5 10 12 6 6 11 6 10 8 5 9 5 6 14 9 8 14 10 8 9 7 10 9 9 11 9 12 10 6 12 10 10 8 12 4 12 14 9 6 6 11 6 12 10 10 8 6 
9 11 13 4 13 9 7 12 6 8 6 13 6 14 7 11 10 14 6 10 10 8 5 7 12 8 5 7 9 9 10 11 10 10 9 7 2 8 11 4 8 11 7 6 14 6 10 11 12 6 
4 6 7 8 5 4 3 13 12 9 10 3 9 5 18 13 5 13 8 13 10 8 9 7 9 5 13 11 6 10 6 8 9 8 2 11 9 8 14 11 8 9 6 10 9 7 12 4 8 6 
4 9 10 5 8 5 8 12 11 9 7 7 8 4 11 9 10 9 6 5 5 9 7 5 7 8 9 7 12 8 10 14 10 5 8 9 7 15 11 8 10 15 10 11 6 11 12 6 11 8 
12 15 4 8 12 9 9 11 5 8 9 2 6 12 13 8 7 9 9 11 11 8 9 5 10 10 6 8 7 6 10 7 12 7 11 13 4 7 11 4 6 11 14 11 9 10 7 11 7 8 
7 11 5 11 9 5 5 5 12 9 13 9 12 8 9 8 7 9 12 8 12 11 6 16 8 13 6 10 11 7 7 12 6 9 13 6 10 11 9 9 4 9 9 11 14 6 11 12 6 6 
7 11 5 16 9 5 11 6 4 7 11 9 11 11 6 10 6 6 11 11 11 4 12 7 8 9 8 13 6 15 10 8 6 6 13 6 11 5 8 7 13 11 11 10 14 12 5 8 5 4 
10 11 5 11 11 11 10 11 12 15 6 15 8 4 11 3 8 11 8 11 9 10 8 13 13 7 7 9 15 6 13 7 13 7 8 9 6 11 10 6 9 9 11 9 6 4 8 11 2 4 
4 7 6 12 9 4 5 8 6 8 8 9 8 11 6 8 10 9 10 8 21 5 6 13 11 9 14 6 18 11 6 7 7 9 10 8 10 10 8 6 14 10 4 14 4 5 5 6 7 1 
3 5 7 10 5 7 8 5 5 10 9 7 9 6 10 11 8 9 6 5 6 4 6 8 11 6 4 7 7 14 4 9 8 9 4 9 8 9 10 12 8 6 8 9 10 8 9 14 3 7 
8 15 7 6 7 12 10 3 8 7 14 8 12 5 5 10 5 6 7 9 14 2 16 7 10 14 11 13 12 8 10 8 15 5 9 13 10 11 7 13 1 12 10 6 4 10 16 9 6 5 
9 7 11 3 12 8 10 13 9 13 10 10 10 10 9 9 13 10 8 11 10 5 12 10 7 14 4 10 6 9 7 8 13 8 8 13 8 12 13 3 9 10 7 6 3 10 9 10 10 4 
4 7 5 6 10 9 5 6 9 8 6 11 9 2 6 12 12 8 7 11 7 10 8 6 7 12 12 6 13 11 9 7 16 11 13 8 15 10 8 11 11 15 7 9 12 7 14 11 4 5 
6 10 5 9 6 7 7 11 7 7 11 5 6 10 10 12 7 3 15 4 14 5 14 4 4 6 4 7 11 9 14 9 9 6 10 7 11 10 9 13 6 7 9 11 8 9 10 5 5 2 
2 7 10 7 10 6 6 9 7 8 11 4 9 8 8 9 9 13 12 9 8 4 11 8 7 13 9 8 5 4 11 13 10 7 11 8 11 11 12 10 10 8 14 6 8 16 13 9 10 2 
7 5 6 2 4 9 7 7 11 7 6 9 2 7 4 8 8 4 4 5 5 3 7 4 4 6 6 3 4 9 6 6 9 4 7 8 7 14 6 4 1 9 7 9 6 7 6 3 4 5 
