# Format: McCode with text headers
# URL: http://www.mccode.org
# Creator: McStas 2.6rc1 - Oct. 12, 2019
# Instrument: ILL_H512_D22.instr
# Ncount: 1000000
# Trace: no
# Gravitation: no
# Seed: 1570894450
# Directory: ILL_H512_D22/0
# Param: lambda=4.5
# Param: dlambda=0.45
# Param: D22_collimation=2
# Param: D22_sample=H2O_liq.qSq
# Date: Sat Oct 12 09:58:01 2019 (1570867081)
# type: array_2d(50, 50)
# Source: ILL_H512_D22 (ILL_H512_D22.instr)
# component: H51_split_1
# position: -0.240102 -0.0325 10.6977
# title:  Intensity Position Position Monitor (Square) per bin
# Ncount: 1000000
# filename: H51_split_1_1570867080.x_y
# statistics: X0=0.000137686; dX=0.0115956; Y0=-0.00121622; dY=0.0157393;
# signal: Min=0; Max=7.41906e+07; Mean=1.66639e+07;
# values: 4.16598e+10 6.01647e+08 21490
# xvar: x
# yvar: y
# xlabel: x [m]
# ylabel: y [m]
# zvar: I
# zlabel: Signal per bin
# xylimits: -0.02 0.02 -0.0275 0.0275
# variables: I I_err N
# Data [H51_split_1/H51_split_1_1570867080.x_y] I:
1675731.001 25457048.27 35850196.68 17772281.22 18225730.84 8240567.439 11575420.8 62675072.94 28199673.74 9.860550256 11007690.98 172944.6514 30767800.43 32432590.92 6465892.83 6324156.342 14618076.61 42625881.27 18445107.47 0.3774161545 10494238.75 3978.348814 24912125.57 11059646.24 30357378.51 21339131.37 7285292.449 21454535.75 6352587.652 3456647.639 8952473.276 227403.514 16961152.67 19006054.55 6660292.8 25961500.68 18599642.24 12008784.82 17327000.8 30285620.33 27219523.95 13863007.67 21032966.37 10567871.8 7861941.796 12174413.48 8833224.058 20621433.49 7256919.71 3109064.17 
34365695.04 10132348.49 12823902.48 28103500.1 7019230.421 45024318.54 11674194.74 17677298.16 18033210.39 14880541.31 29472244.95 26565864.36 29903732.71 4989875.521 24609724.11 13738036.43 22099742.83 44095169.33 3096317.499 22099303.04 16324732.01 18043798.23 0.5171539996 40774395.04 55649899.9 8008917.68 42827888.05 8533550.497 8579488.531 8748984.867 8702324.382 17732683.83 20397587.53 573856.3391 39028448.14 7821823.866 9093402.85 53359314.46 23151485.15 11613478.22 20530383.81 306.0241457 7767645.009 14651673.34 20293364.81 23112369.33 43929960.17 15301258.53 26383259.81 30733.96935 
7558333.996 10010907.55 8288965.748 11196601.45 10739168.5 15589883.78 25885394.8 20025584.6 6054.405124 17931313.21 7767716.348 28422488.62 1419259.736 36334327.49 8765519.136 7341142.684 20113500.97 6146231.167 3759441.914 40121274.3 24688574.78 20399273.34 9691990.077 47892610.66 19723536.18 54.29385854 15032087.86 46338058.27 4017802.776 8811730.407 45688501.73 187.9127593 10877523.36 7908764.324 44640472.59 10445212.01 12139893.78 67.11759329 8931546.848 15481430.36 59229457.24 5507731.581 236136.2936 40667242.38 8711937.053 6386408.883 0.5904554655 21639053.54 21159493.33 4099.507762 
9067828.497 8045668.383 75186.69582 16205415.57 1.600648064 8923169.014 122033.8537 15678995.73 11469068.47 17513871.55 25613602.32 20584790.93 18199909.57 2738724.28 19338744.13 29437558.82 28143530.51 25057290.92 12666895.05 47320379.45 12055813.58 27721063.19 3513219.512 1082.624487 18683146.84 9925307.855 29586920.4 7670398.344 51548603.75 7440112.042 7789337.749 11048060.4 16649138.85 16212405.66 8603439.4 4.682228422 28346414.2 26666927.82 29627293.68 25797689.47 18801631.83 39865830.19 2687.267399 48039540.61 7826026.266 40395152.94 9452.775185 46621002.32 18341558.96 8065901.27 
27744577.31 18014777.6 112419.2526 11523944.3 69336936.61 18334810.7 9888993.346 20914971.84 18524368.72 30659629.18 3522563.563 14140728.05 24280434.13 28068954.95 43653853.05 19539385.96 16821357.67 31214930.19 8128515.085 15907078.99 4053.109611 20308438.92 79565.17323 22710673.53 25097491.62 15535807.33 48915744.56 8683536.56 48878472.09 11997842.9 2.055657924 8717374.059 4617.498277 61246320.03 26186353.31 11671254.23 8212985.034 4146302.604 15107940.38 18971022.34 7346878.698 9507618.57 52241741.41 16805784.06 8845018.063 49066584.66 14986704.07 13768084.16 26806445.91 0.02278861743 
54513.69759 37860397.03 20353245.64 8372052.293 12850627.55 18677643.52 9154813.583 6671941.628 26540597.55 44484918.13 17039333.95 34114095.46 8486894.89 8636163.207 20225390.34 29699029.62 7696347.217 28976912.81 35032414.45 16834133.24 15759123.75 27493502.36 7957913.828 24890590.16 13977158.59 10496112.17 8743593.017 41931322.7 20624837.54 9592262.585 20461776.26 3085296.773 7442064.148 11140986.45 6236354.733 30028999.27 18289945.99 34162930.55 226790.8166 26630404.53 12137775.57 17074454.86 15158211.48 17455408.95 48924695.79 43733265.99 9144188.782 5985580.268 8469315.462 56.03133341 
17880793.88 17636407.93 18482722.69 25972221.68 21500920.65 7392718.235 9322261.403 7331984.235 64920427.72 92932.44061 40205911.83 20117248.07 15178581.56 23104582.64 34739943.36 22209593.98 28192163.58 8035922.264 3970613.127 9021219.775 7162801.79 126.1399682 13083217.52 16085231.44 6760148.206 17973169.52 4547230.074 15668190.63 149099.9018 8580938.326 53835376.97 68.8233274 12901228.2 22179887.6 3113.222243 32068511.09 31321507 4749637.382 8184972.119 40547813.03 47966995.67 46.95150981 34758450.05 31317068.47 14792236.44 5541155.182 23183731.17 6223526.378 30029655.4 42223523.34 
8556390.743 5976271.771 24074355.97 31634014.94 22344873.08 7091929.661 1356524.605 19096032.33 48127017.21 35267192.21 14183599.51 5807837.97 46059109.64 0.8565250665 8425730.245 18396275.59 10148556.35 8783409.677 25327569.79 17367685.27 8538780.983 17307097.25 8348497.186 26274806.7 32519469.23 18196230.84 9892232.711 11638279.65 26434081.35 8491600.285 20204037.86 49887558.7 26079672.13 21153117.39 9008470.145 13136695.57 2627.89576 39619261.76 6460340.662 17763642.87 26448663.44 8140573.729 9527497.176 31752222.4 24444189.06 2644.764645 57654291.39 37574968.15 15336715.63 12700723.69 
43623092.99 8858002.606 18927212.94 15362983.02 14457127.54 1445.791045 4084.728189 19320.62809 42339209.09 24911723.34 17654270.9 21894871.1 33451504.65 47980764.85 7934715.887 1364064.909 24180971.96 36833493.38 12733761.58 7290693.657 31681341.84 19275313.16 36869.00468 7185023.651 8762673.015 21850091.11 29445.77016 18022223.25 25998524.69 6205341.645 8630615.244 608259.3934 34886152.11 31009203.69 11818703.98 9720962.491 24573361.64 15341041.31 10302330.02 54956279.94 11530166.48 33203185.9 10988509.52 31691446.67 1461920.202 30469224.12 45204734.56 28764486.74 8244522.083 22446895.67 
8377486.946 13215983.67 8563417.918 20390181.04 13678193.83 19480176.15 21463646.93 13443373.85 30579929.97 14950352.14 16041832.41 29011024.65 11310833.42 26084798.72 11015404.01 19475491.33 267968.8801 18442597.6 28339253.81 40470548.38 17884813.54 7688420.671 16433867.7 18431816.12 26375221.42 8633487.197 10346344.45 3760175.236 21298560.03 21186401.13 52129003.46 9309625.318 23421610.37 23471948.23 18137538.22 8731686.242 43820131.91 37501258.93 8538775.326 29080826.43 43114310.73 74705.52765 26016260.22 29055024.47 16169690.96 8228989.671 42348446.61 2.268066338e-09 8349282.659 52789417.43 
38037.75238 304.3685459 24738622.16 39740608.44 1879.673783 19067370.1 26449199.95 35796631.88 16842292.51 39230382.65 14653074.73 12298795.77 23556.73248 1758598.309 8028256.638 29162310.98 24308264.38 9808738.422 20343345.96 37036438.03 27837914.01 10318773.98 0.0001960592845 9354112.143 19107020.65 31874275.34 2844748.652 46373574.47 8740152.705 14562731.92 10347168.16 9337869.587 8044072.372 44991353.24 27015620.27 2743260.695 38971736.03 18109874.92 11038843.58 9031761.769 9249724.554 38833577.93 16230193.38 19554401.47 7982638.765 5991.541019 19191206.8 4382641.154 45106139.95 26883017.83 
19674262.77 33137019.27 7732807.056 25576724.96 12887197.01 7.063871434e-05 31492651.51 16613070.98 24364536.79 15655080.56 10432748.34 6033.95395 32476164.44 31619895.85 34301422.02 26928655.35 19177532.33 82.73538671 17719882.31 8992365.346 51155151.28 27003511.8 31488175.62 43096106.58 17807710.33 28590813.68 6992362.873 1434128.041 9277096.404 18901983.72 27621450.33 7881324.826 10110011.62 12804597.92 13253482.54 20512181.08 15799124.08 7934.605529 9612603.968 17550260.12 10236750.16 12052821.34 20202626.37 361293.9927 170.4581707 28871750.13 22426466.41 23078936.94 11216715.85 44155.51087 
16256147.54 14474357.09 10486489.25 539.3177989 50155493.61 21441064.02 28659647.25 255.8552922 10873543.69 16340644.6 51306931.08 8781747.011 25169346.12 8024648.901 12667649.47 28625336.53 12898676.24 22540513.27 22460876.36 25951151 10144625.41 14279173.45 2.923990404e-16 38816704.14 22879119.55 8225665.285 19672421.51 16687898.56 12459884.58 23967539.26 7603559.771 0.0005910349291 16094071.44 8958636.379 12215591.94 32158105.37 16369771.42 27898228.81 34528438.01 19408001.88 20727032.82 25824714.33 24843151.27 10749568.61 8038612.31 14163615.52 28958444.34 60431497.28 27897482.08 2.380548921e-11 
9521140.043 18259320.39 23440841.03 8580808.729 11608281.74 26499997.72 21941293.5 0.0002180036191 14381526.59 12503820.73 12500767.14 34143878.27 7948361.569 22274.5887 12133107.47 16335314.68 20957381.28 156448.8888 27688.34462 11522156.54 8650566.972 19463857.36 24995419.85 6166791.389 27162788.07 24002994.95 31211235.74 7550386.763 15352367.19 38514920.76 31950291.2 29170401.94 23730057.07 9399236.756 22191302.04 37184068.34 885417.6489 16889317.89 21833073.6 24438024.56 19166698.82 13229954.85 7006990.137 19430452.75 8766284.603 8696745.988 17613788.03 3660614.447 23447955.39 7980813.279 
43592.49009 31545223.8 29405019.33 14551562.93 13453032.82 31445669.53 22366542.91 18507600.91 18603852.19 9612065.87 23828463.37 16344329.89 27831472.78 8015510.107 92.80286556 22916878.15 7773737.974 9560897.436 8055379.225 9897687.786 15190159.89 43558030.63 32062264.25 29353200.58 161984.6462 15768725.47 19885989.75 18460858.46 26261271.57 13756479.78 6820860.478 26791712.4 33913088.14 7058.934579 19645050.03 193708.9947 18910148.37 6805374.054 10506714.05 1323986.068 10244546.25 22349756.72 174399.9011 33072438.53 20218002.34 9641262.108 8422446.654 28641587.87 0.1338631183 10480100.98 
22821401.7 16558428.85 38538934.52 39521761.85 34074872.48 20671762.44 18149440.63 9488481.844 12588406.96 25159816.65 10927304.8 38223676.62 30164768.27 19553391.01 10526798.85 18463976.7 25852189.77 17525178.9 12529373.18 273234.8355 18201429.84 19003415.7 18971602.39 31643493.22 28092659.84 8957976.996 35790700.15 67532.80568 19993187.35 8380367.074 9491671.022 14892087 15685430.39 21204477.21 16532637.9 4311704.749 10708803.63 8871955.14 13055670.79 50359504.25 17277467.81 7815800.117 32378654.1 24461437.92 11542418.84 30808752.78 17207.78416 18754164.54 14417692.83 11636529.3 
31226839.61 31863979.45 20069452.94 17420118.36 18666594.51 34601109.81 29782718.81 487387.4427 36339163.14 12912580.33 7733766.175 16986084.57 16494788.45 9083293.407 13042335.32 17854954.75 23681425.28 15507565.86 9858681.02 17759214.25 32712610.05 20962726.44 19108433.11 6766116.705 39289430.83 7721501.221 8514128.227 16051836.79 15537316.85 31152761 7951867.496 31751772.73 4419968.692 6751149.875 10229649.84 10944196.11 22860754.42 17853940.54 19225581.65 22093985.59 34060965.83 9773931.549 24853982.52 33217033.78 10584702.72 15783862.15 8405277.158 37273588.04 3457.623769 13776083.48 
703506.5493 7688809.086 1122416.552 9111849.239 12352941.88 25404664.68 5397209.709 19416455.38 29697366.75 23741514.82 9875982.832 6477305.65 12209363.5 24182418.06 8805803.844 4103989.103 29052721.5 32162904.38 18021360.36 7812441.922 25484392.59 20742434.52 10519199.19 5774539.181 8016693.968 9799334.731 9069109.821 16543663.85 10104401.19 3797821.226 6.487287429 42681573.96 46384444.42 132.2732561 8.350783132e-05 46984058.8 19005148.52 6376401.957 32075057.7 29757294.94 31837328.71 21180811.4 19793139.11 6825946.489 38428936.48 30936861.64 32079507.26 21454563.29 8624871.751 23606839.12 
60994690.32 17360303.36 19286349.16 17241434.68 9967198.087 914325.5333 9001294.639 8011794.564 29245055.55 19977655.84 9399457.899 10223193.29 0.798816857 85.54308553 16975166.7 11437437.5 10171170.37 8543435.504 15605591.65 19658807.32 26964472.04 26478553.27 32276237.54 13408306.45 2290664.776 17778823.22 639.0766656 17614126.1 6931018.766 403423.5291 38310537.42 30776273.89 991.3037983 29565416.78 12678234.86 15593046.85 28903613.87 21807126.39 7418153.494 10761339.78 30710361.78 30363761.13 37220779.26 26472915.31 8927400.573 10394247.08 10838649.89 24044419.46 9824294.683 16849.61492 
12957546.09 9148414.317 8272637.283 20064389.54 25952772.47 6832304.5 34480844.23 3136227.483 18129256.11 14498230.98 14122805.43 17494982.07 18828039.63 12604565.17 23669709.56 13160547.72 46338838.88 15696481.79 15769130.88 10719823.11 10311548.17 29028803.76 26923816.84 19004630.82 9132894.705 7667413.414 1.929772058e-08 2.357979362e-05 12040257.75 22486628.64 20941003.86 14984386.33 6248932.289 18145862.96 7451988.064 14138167.29 41312332.83 12388642.83 18262651.78 16813803.78 7121583.516 33432231.07 7904110.495 27657363.28 46389503.11 11963478.52 18219893.66 23064792.31 18034908.74 29841340.96 
1524342.959 12396306.34 31587818.17 16947413.5 22621919.88 13889099.57 8174.068949 18348290.69 30534884.72 41908030.44 13272305.01 2898561.051 47611892.98 16970479.71 24423072.58 18234703.46 33732161.29 16459230.19 19833578.72 11515584.41 1808660.466 17832120.74 20547177.97 40948809.25 10079.05156 9429785.362 16058221.72 16291322.64 11887242.77 20337615.98 23894711.75 20078745.2 0.0007413054673 21785566.11 38627555.37 9510012.161 8227.357369 18195017.08 7132983.776 30490173.01 22117356.78 18550610.64 16784719.73 25364928.83 16469319.51 8896890.318 5954083.225 53540181.6 8700012.19 7.826239016e-11 
11339264.84 18269473.92 6244916.361 79793.51075 13173943.7 16862432.7 10946.38596 18739322.9 37280943 40536034.61 8029647.026 16242854.31 31671277.32 26097671.72 24615045.43 28719627.69 3720719.234 10787442.18 32493.6484 1284557.841 13768664.29 15397784.18 26712987.46 40915802.4 8510889.976 12216287.2 8184330.099 27733600.15 25414263.2 31416516.13 20280453.43 15192809.92 14302909.97 7161924.102 17136529.17 19482447.38 39140174.78 28386592.47 10331559.47 46147340.13 37401802.92 40515158.39 10267060.34 481430.1557 12053534.07 7218635.046 12112091.47 33859719.53 27276525.88 9176044.736 
18955226.78 1445696.579 17510308.48 21659375.44 17112224.49 16765165.02 21670133.81 7151914.483 10150325.48 58946317.57 11211346.03 25409083.06 18347813.44 19319546.85 22278065.11 38620965.14 15028267.44 23799616.02 7423704.19 34491504.38 7738380.468 21736389.45 8581194.622 8751981.323 130659.6057 19734375.84 45791.0425 13550444.2 19586.13489 41809015.46 361882.1247 60566.1513 15097284.26 4782919.298 29913872.95 796745.2185 11014552.71 27865221.98 8285805.279 5014283.969 16706299.9 18084038.68 24756965.23 9228079.213 21198560.32 26304772.68 17295229.46 7832462.357 58.2639871 16095631.08 
7971176.546 27777806.31 5813435.3 18298716.12 29748765.07 51441309.3 15478850.52 21300784.45 17330502.43 20206169.47 20690106.97 12139658.35 18830950.97 8155308.654 19096776.36 21178553.24 52067935.96 49539057.21 16257223.96 35172199.26 9736998.169 186892.246 33379828.79 24777555.35 4132297.142 14126651.08 26097751.28 40535603.67 43652863.17 19251986.06 17165541.64 31127254.9 22226275.13 10397361.57 11293393.73 17164092.79 5937294.041 15860464.54 16043247.62 40837891.15 10255.80054 0.0002403863262 5206351.647 2118669.185 20559064.61 18055367.43 15323598.65 15023279.1 14534569.82 7827739.544 
15049718.78 5638784.968 51673.13113 8179657.966 4547040.111 24282572.11 40495638.07 27356890.1 49927130.08 1.444763139 25222762.13 24861.5005 6693571.006 21323006.25 6274606.803 5809291.201 8226081.177 2147625.279 5347.591951 5926.184712 68.45804357 7787698.059 3334.941962 8964012.532 38180407 3354317.044 31600901.06 1019360.929 54136556.75 7888781.335 48300887.29 0.004928949899 21344555.81 24568036.44 7628915.874 9952291.977 29163138.36 201528.3069 23688345.22 38031927.66 7930933.43 16995928.59 57.8973897 19315672.91 6022414.834 14898907.62 15270036.34 17427879.65 43413016.51 37906002.5 
207785.087 19263685.75 90753.88854 15953747.22 21403151.32 20881473.76 28347390.14 54971.8646 3.88327675 180595.6421 33510159.63 26859048.83 20246090.92 11577312.35 18206296.9 11303673.95 16315638.57 437066.6529 34802934.94 21895269.85 19617834.99 31436228.8 223138.6172 27055342.63 30722523.5 37405533.78 26914190.91 89719.82743 14418901.1 7407612.974 18268860.76 7717710.642 16837690.41 23867713.03 37967273.71 18069547.37 37838551.67 8307.32849 20628442.65 32052104.66 9038326.786 29772825.23 27560282.85 660741.8355 25416560.77 10189537.67 15571298.9 29381275.81 20383750.8 14901797.42 
18484974.36 256.2510942 26574047.35 25790412.58 9675619.981 8100173.999 16037834.74 206213.5516 4107369.263 25531030.34 18071911.47 27788963.07 12873039.28 10698236.45 10033215.53 11250710.58 31698597.07 1788.484909 1246048.554 5542709.968 49215241.19 32143488.07 36422001.7 19328450.74 15149110.67 0.5447764872 17043378.85 10294272.23 3421560.358 14494207 14060967.16 43024.71902 19183181.14 34656662.18 17891020.52 30911963.85 7431475.066 30817329.51 15595794.42 27515641.82 18490027.26 21052489.07 32044083.81 535317.1764 18471867.31 13464038.77 15969818.54 10800449.34 12688958.98 27409547.86 
0 37330437.08 12051767.73 14350026.26 25.3431637 14263821.98 9648912.453 17844073.92 10001529.16 8335418.934 10988212.53 2097644.366 19418230.37 10467304.95 32992.62168 10293349.66 346194.6154 6.989788447e-05 8165095.272 9607500.328 8448771.732 22737240.6 25752488.2 12801255.79 26836715.64 5819517.852 7735237.481 7573174.428 38034654.54 23012467.62 10155732.54 10881052.24 25303149.94 10047345.11 36916187.22 17174326.55 1068977.235 22822049.08 34536002.49 27492058.55 18900806.4 18407871.64 10937474.26 23298750.38 14444805.3 20063347.86 239.7459194 27818583.51 18518569.81 15982841.06 
17496395.43 10619338.67 45285.89953 7985500.225 29681197.47 35103951.37 20232750.53 7546551.753 0.2425391523 26768877.19 386.6621681 11620201.45 9792229.752 29155858.23 16244714.02 13962.1955 11858424.64 9577871.795 31236187.6 7672010.214 12574865.14 19382069.8 7426771.443 21619824.84 15887264.03 25816585.78 2769092.423 5052406.178 1488873.841 7579292.858 24736402.6 36834523.79 5.559881343e-14 15068419.87 122.1317474 36567953.93 7048.741491 8587618.441 3605539.508 31166660.35 7122914.253 18102744.38 2.61093345e-13 9248692.337 18116093.87 7712792.724 7176464.84 13731166.59 28800212.84 16722502.36 
23407491.14 10145609.06 26316091.12 9777914.81 29933018.77 19380090.52 21622505.76 6291727.27 28070900.43 9194054.401 24589206.98 25642176.08 26308861.32 17045236.36 9485989.964 22849311.49 13048381.84 19948499.69 27067042.89 6923433.529 24925565.31 136824.1906 10682386.33 18040974.26 5262389.227 28978064.52 68779.30387 21109871.23 22298868.43 13570963.59 25171653.39 13011498.22 27845675.68 8570056.341 14295189.3 15462665.51 10650695.06 28317513.39 20076004.45 27230866.16 15649335.6 11909672.41 7747879.29 53136.6779 28799908.45 378213.9608 17340412.47 17721422.83 15337394.76 29047402.54 
7934393.467 26709234.97 5731429.935 19976194.76 19820.57846 24902440.27 30928189.67 1249.597171 13182708.97 7686092.232 9846746.214 10.47566078 35229837.09 10673503.77 24297413.58 10303489.52 11298702.35 18721613.83 14033892.81 20701825.05 14125809.01 20093925.59 11853941.81 8127455.771 39837143.89 9650718.213 8468466.061 30234403.34 40037724.59 2057769.935 17758147.23 18450131.45 41238872.08 11991299.78 39897200.28 29623511.78 8804120.629 29035176.29 11527465.11 11532970.41 11454629.39 38194968.34 7782940.492 18117148.33 30482046.09 33848287.24 17745926.64 38868775.83 18876508.24 1.307202106 
26889545.02 8332947.971 48147179.21 6930.208874 5894393.187 30585329.34 36455456.34 8452582.576 16867904.25 30551947.26 18022649.59 17842499.38 89.33310608 46713159.18 898499.9498 27679988.19 1454563.798 20078946.5 537845.5419 7561333.945 24593552.24 8273138.215 5761765.87 24906890.14 10693519.44 21609545.55 7005058.971 20513272.89 11869602.59 3342.707478 51575.63149 10863899.49 26600021.1 8585634.448 7659864.409 21628902.24 10922578.01 20040234.04 7988201.425 24237972.1 9154447.541 9768177.081 34046436.31 19854429.69 8359660.75 11264227.56 16126867.71 8809904.48 32664090.78 17054164.61 
16842185.08 12107515.5 19450497.47 10357924.51 3162813.798 16432227.33 9043805.344 12856475.58 1505381.984 27081737.79 18.5172905 11162566.08 10684134.39 9934001.144 25057490.14 15533920.85 6662187.789 10349423 43699720.33 24621626.33 14233860.4 13909379.14 9736978.506 7272.562492 878.0759839 21216824.73 12074542.84 7567062.067 48366002.88 11412556.17 18796044.42 22032165.25 11003496.71 5742001.749 26700982.21 6806455.283 8477741.776 19465084.48 31341445.94 16933511.44 3144505.38 11096203.12 35889866.74 32020377.75 15348982.32 5206947.079 19680688.08 37048737.74 2398197.078 25344705.87 
19568053.6 12625720.31 2728590.304 28604414.34 8362996.694 8686007.248 6548213.908 31885789.62 18834371.51 14511063.53 37482033.42 6286844.236 11319116.12 21905571.79 34469.56496 6966079.114 29610855.76 7418954.437 11825925.68 6280129.408 33953932.77 14936055.06 27667279.79 12801082.48 20412149.83 32366710.2 31004011.61 7135308.043 6561147.206 34237833.17 14808087.47 17127085.66 3246034.688 36414254.73 25227087.06 19423130.12 34981.1676 41799799.02 1457037.397 12375395.22 34069438.52 8865051.345 26311310.59 29280006.9 28872594.03 24296608.04 16806398.84 4159.089547 72429.60491 1.101637403e-33 
16357913.86 8351037.332 20597567.35 10164622.36 23525.26699 28904121.49 133059.5526 29475009.61 10040822.59 10795702.73 17748420.31 3666836.797 39700794.32 21088528.36 8496506.873 18694126.52 26469554.53 2849132.184 27045253.19 19943098.7 25538104.01 3.93964841 8173129.267 10380470.1 7.801262169e-05 494903.0584 10548315.21 2379913.511 13255969.42 3334757.62 1085422.568 21955815.76 51753533.43 16103358.95 21548705.82 19608358.37 12282936.06 17536192.8 15668751.33 19455875.83 12101276.71 18115934.31 16193086.82 7629031.941 15688050.49 15391854.46 29954436.08 9898758.92 46991458.65 8777810.492 
10586168.92 30134871.11 16383738.32 9918239.904 26174054.63 8766347.881 6443879.358 16599290.29 7639739.23 26831459.44 10276667.57 210356.396 2160954.421 8071649.082 8617361.022 15000994.29 13612782.18 21607.06638 25609542.77 3441486.055 20860362.96 22629446.98 7417034.768 15157736.09 18635642.89 9497998.895 15057079.24 42638144.44 10755871.8 10519.15918 38442952.37 22683737.79 19142676.09 20603158.36 6221654.605 12033.30052 13444447.53 28751308.2 39599022.11 17864765.57 7786461.262 3925.506119 17565063.65 10498635.9 16597074.44 32071718.27 18442346.05 21790594.8 9936258.805 7105773.755 
27043212.45 20921414.26 18097277.08 10320720.45 13510775.71 12815492.07 5808436.546 8743780.787 14103939.17 20240646.18 9049544.405 17454780.38 21931127.55 16026606.52 30279507.28 23826837.6 38451124.35 658558.268 6855.658877 11810421.7 16258756.9 23751814.95 15567131.07 15457777.99 3060563.767 17240923.33 333151.9478 29539066.95 43586084.97 12714901.61 8125059.247 20322604.21 14573063.82 19033792.78 8398270.227 16733762.6 27419725.02 9781638.146 9598.733091 19035363.53 29225456.78 29303267.56 14379248.01 7742694.933 40652284.38 8131379.304 3493337.056 42230039.01 6728678.132 40585233.8 
0.008451079373 18271905.97 12009073.04 14961870.25 11622918.88 1022343.425 3528114.863 836564.8688 14805820.39 392384.4754 2658387.499 13927924.08 38695516.3 21161669.3 74190600.26 10004605.5 6521634.582 17235881.28 23588040.26 9171633.6 26115095.57 90647.09375 24951028.08 14991536.34 17562258.11 23295.9819 24105753.72 19192285.29 29434404.89 21313308.78 68775.38089 15762014.37 9426215.101 433252.594 8300559.526 18694086.22 9690108.584 33621719.68 7161305.047 12043608.93 34202122.74 18543366.82 35108963.54 7462335.547 10914820.24 10587119 14366806.54 30209985.96 8626663.427 42703518.19 
26209588.46 19301889.71 10555026.8 1.619204392e-10 50462495.88 10699620.9 9683086.507 20729375.32 22786968.32 17834852.81 19759331.78 4393391.796 10515437.12 17113527.08 22628266.87 9180851.895 149768.995 26303604.93 15654023.75 9259529.433 19407116.93 718522.8851 16485028.31 16483965.42 25104819.22 19619634.21 19996690.97 21090579.46 22504016.96 17322823.52 8885716.132 17756638.63 3560338.914 37.35909458 9008685.625 16698359.19 9908678.547 12851277.3 17485107.52 6391986.399 5390.209736 8735846.871 13310395.29 7949502.071 12639797.56 9256618.934 19880687.62 7726269.197 20153360.63 1639037.068 
670420.2997 44065617.2 24314602.12 24614435.42 26661561.47 226101.1236 20754010.22 24354925.08 21962982.16 791687.3862 15992548.67 12817069.2 7978057.467 1850605.935 9233824.431 1483.909239 33099974.53 829309.3857 11165.681 11946.73029 24307269.12 18345854.3 15809157.96 33296606.99 9492371.568 15399567.62 10532757.32 21770648.67 47.51064152 6693354.232 17783754.52 12725422.21 21095180.51 24843891.55 17725338.69 27470267.21 2574.003216 15659033.36 17235955.26 27087458.75 967.2294781 10043755.14 24924448.58 10472527.52 22044508.09 2904049.2 6183388.199 25634462.9 8973221.428 38319705.17 
21252520.09 18197808.18 10547933.36 9340094.132 21111443.57 29716997.12 19726545.42 25738033.82 13132975.48 7775551.604 11189189.52 8446380.653 22974804.49 22253171.26 8469248.87 0.09404481633 6466578.55 17436851.48 3221126.019 18741821.9 15044122.1 23915974.76 26820081.37 11210418.55 24904028.5 793999.2503 0.3356195692 1697.136884 7823950.808 35190263.23 15900929.81 8228851.526 23027096.68 7922803.851 23634998.81 8604647.469 14792672.48 8139595.692 33183913.28 11534962.99 19232897.1 15259286.32 11324547.52 4202325.499 307.1616134 31751247.25 10355769.53 24775805.4 20435492.71 13975006.11 
35883802.05 7491148.889 33813605.58 8871153.377 18631497.59 13848279.24 30917919.86 17350383.78 11814501.07 391440.7035 15836891.56 38073829.38 1416372.167 9044817.007 44665181.33 828548.496 13715970.61 24457929.5 22234022.24 90725.43965 12350155.39 6901228.247 8835248.406 12926507.55 27587607.95 26541659.04 16068021.52 9946405.06 16250557.41 8782886.397 5115730 106493.8447 14090400.41 29511311.71 1940.983717 6208450.403 19489396.89 8276.57267 6739084.915 382876.829 29044658.78 21.78930358 14854769.01 36699433.82 2817432.65 16031305.18 11708789.79 7887476.999 4406630.909 40292798.1 
16650178.95 9660969.971 880.606272 19097702.67 12500239.19 9981545.706 32005353.48 24916416.8 51695652.19 19264825.96 14410116.18 10005090.29 12043996.46 7642598.653 13640438.79 33344039.16 28182808.23 9686839.065 13703904.03 17342239.43 13633710.22 18309.8302 43883.75859 37262811.08 1029243.457 1385554.313 25700266.68 13009170.69 20056777.03 11012722.53 16530685.03 9536940.222 6081052.259 2515177.804 8006849.746 3645592.424 8701849.711 17590241.71 7458270.119 1941040.215 10123839.54 232100.7768 22800665.02 14238706.45 10247282.58 2.020043134 38683804.98 40755.59046 2548975.561 136569.0103 
14231851.14 14269995.61 220.1282189 18678670.42 22883172.25 20563404.5 11226.63792 19154297.27 14579402.99 35618502.5 9847839.975 20792828.03 18109416.84 17653657.63 13417104.34 21977043.41 8387008.25 1063748.989 22341776.46 8444136.486 15117178.54 19491969.8 9216583.33 1419.592992 4635.065678 8329208.92 21550772.99 6216187.163 3643670.824 28617184.91 6878411.876 16761475.54 7286223.069 20914809.38 36425116.27 18092338.1 8662109.26 30460639.73 15178371.17 10726582.03 23109397.38 5696576.038 4536891.427 7707428.1 7995680.45 48725126.96 27041145.21 15606806.56 11380023.78 6908545.77 
25824760.72 7243848.47 16908446.77 17016171.63 8975869.725 21221907.79 8.563543892e-17 17144752.56 196095.1076 16057704.28 9114133.02 14091.32665 11051183.27 54453593.62 15212895.33 1159438.737 20525935.66 8706802.877 8499813.494 30743229.53 3847399.816 7265732.186 20085039.71 8198261.771 10964411.82 15427400.12 8641429 9344716.626 7884754.8 13951498.77 28998515.99 9638938.296 29470731.91 37104107.77 19552043.08 8417019.716 20993158.49 92.23559593 18439865.95 376683.247 7263998.012 36733127.27 8156496.089 13976379.38 33731835.16 8014259.403 22512070.49 24261912.78 441912.6109 7948401.703 
45795001.84 266839.1521 6003021.804 20966572.79 15535353.09 3976283.55 12671677.58 6917119.408 18058978.5 6373881.338 32549556.49 4112766.325 30006254.35 12103819.82 33246676.5 2946246.101 16876689.3 15350878.3 21149.52185 27479256.73 7911032.57 7408165.147 21638335.26 7407057.198 10685463.15 18444219.58 25143440.83 7349365.113 13837897.75 6987166.3 23416309.03 16586581.68 24937006.34 38911861.93 16706896.78 20646231.64 15342341.34 18326373.95 4195437.03 26165867.34 13608.81441 18606744.87 8313072.502 21136430.73 6071131.494 26815407.41 6614507.572 16110202.28 3784138.985 0.4105464007 
23789226.5 6358581.381 17576548.03 3922050.998 26254550.89 9909731.714 7555647.84 16348171.47 293272.8162 11854328.64 10783674.62 11345729.7 29458681.52 2076833.195 673618.0438 14769460.02 11504954.91 26018305.38 7307217.575 6956274.065 17378365.33 36717865.64 27007292.87 14070780.11 9533872.833 61500646.91 16173776.38 23024270.45 17106703.27 3506346.335 309.8105968 25113201.58 123.6174163 10481367.53 32994641.78 6277212.705 30839596.52 24593375.65 219013.6212 33140253.75 10049684.64 1500053.35 8568144.797 5470.465577 9022226.772 286230.3479 38834498.1 5.748170522 16050.35819 2300127.618 
21239185.38 13822329.75 16059423.61 994.6914373 15894524.35 117564.1395 10808607.15 13216084.8 8320016.923 24629111.29 31566434.29 7202467.393 34148116.93 9040897.728 42926.37275 17002268.61 8203870.821 9462691.726 7950386.611 19877558.09 36109323.83 48537649.6 964433.1518 19806724.86 1900558.478 196231.1289 9188171.519 22647139.83 48846.78479 7848462.636 19322753.61 15976206.06 384921.1717 633.368656 18382226.2 29215275.1 21185172.45 8441198.183 10122331.34 17090180.99 24144697.84 1776496.223 24105909.65 15970012.42 1.392101569e-09 34281671.7 27802864.44 13287982.1 54134771.79 22702989.62 
510505.3249 19652582.96 23256224.05 32651186.37 32285594.14 23083505.67 11793374.78 18416223.95 5825694.47 240051.7595 22703023.42 8260799.811 19395172.74 19838614.29 8761205.39 8832785.166 0.002854894761 59596818.09 11760650.48 30407071.75 12997163.08 13478981.13 16756769.57 88632.79309 10339552.17 8896073.293 63000.48162 17133141.98 443011.5625 15125074.34 9359307.288 5354904.903 4084396.455 20997003.55 6578232 6106275.516 16705384.34 25464831.09 22370401.61 3.705621453 8044854.04 214.1194258 22997506.9 16742941.49 5814293.091 11508134.9 1.518555558 8552355.13 8768210.889 19230696.37 
33321963.79 17892.96211 12530675.22 16498287.12 28677872.09 18824600.35 11393884.36 32276587.24 443115.0098 18344082.3 18845363.58 8541596.15 26507224.54 10181241.5 5599614.261 31432049.51 53138994.94 16847616.58 18246086.53 28787470.54 12818465.62 18159558.75 4644.597131 198369.8179 22720967.24 3387340.579 24306095.42 8285321.316 28436.02991 6552899.84 16710078.4 25219220.92 12674953.09 1954096.225 14209562.33 9487203.809 0.1121675108 5680806.803 58285702.84 33030807.43 144595.0889 17689969.5 13224920.95 22141073.99 21961392.3 20132051.6 2729.626858 32220689.35 23963.76327 11876353.26 
# Errors [H51_split_1/H51_split_1_1570867080.x_y] I_err:
2052342.949 15498225.61 18441670.86 13478470.57 13586716.35 8740053.251 12262402.56 24724720.6 17182190.43 9.713407137 11761557.01 177430.7871 16148301.19 16930452.41 5648430.558 6438139.353 12038514.34 22290031.49 14165893.74 0.4021789017 9481484.592 4872.449933 15113046.19 9411889.605 16178336.49 16096445.89 6916330.242 14020226.48 7335336.382 2985177.51 9806943.112 239697.0495 13074568.81 14085364.68 7689478.914 17962300.16 12312783.11 12836042.58 12965166.72 18389938.57 15215344.75 11253292.77 14349188.57 11297530.17 8404769.079 10283580.06 9295729.557 15323589.39 7535493.652 3590038.071 
16047092.58 8339491.592 11765514.91 15843477.26 7581635.376 20456781.02 9009681.97 11570065.2 13421441.87 11108303.1 17452421.52 16121025.01 18135847.06 5138202.209 14685188.25 12829988.81 16488432.32 20372534.14 3274243.133 16377855.93 11773873.14 13352806.65 0.5781957486 20932698.31 23505379.33 8954242.178 21094072.74 8095664.84 7938882.169 6615150.514 9729494.432 10840505.89 15668660.47 589824.2582 18273520.07 8361881.136 8497421.199 24578080.06 14720734.33 12241349.88 15215873.75 330.5409892 7878752.765 11225290.68 15176348.67 14400591.38 20301563.6 11471586.46 15434823.34 32635.59634 
8160720.478 11559600.33 8329393.163 8744766.693 13152741.54 11744795.02 15523847.82 15007886.49 4720.146059 12336629.38 8233867.086 17197972.66 1413979.364 19044934.31 9799989.887 7746283.183 15155282.98 6478137.758 3998644.657 21351728.26 14851139.16 15170503.62 9588479.652 22501932.06 12009993.86 58.64406951 12087182.55 23662012.48 2949463.147 9652767.025 19831251.27 210.0928518 11623368.36 8221521.601 22027766 11232407.31 9273189.3 71.1548607 9548164.383 12383321.63 23381738.02 5847443.37 247537.7585 21268122.98 9739752.359 6690191.198 0.7231573032 13072408.91 15613421.53 3854.254864 
11105776.45 8438054.236 60593.76465 11943606.65 1.61006433 5895957.19 127576.9704 12827469.03 8824572.778 13364841.9 15385714.77 15679715.33 13511260.8 3061986.831 12338441.76 17638050.09 17185396.21 15065188.71 9489220.67 21397822.34 8969911.325 16820365.96 3919408.702 1155.293077 12911298.41 7624061.755 17980968.77 8284977.078 23948260.3 7811045.076 8225982.168 10389818.93 12690246.7 11561028.46 9424592.108 5.005472857 16342112.7 15984532.48 15273544.37 15623750.58 14052281.86 19416062.13 2943.753945 22960388.4 6590940.819 20514621.9 7834.377663 21918842.67 13432920.78 9017951.39 
16153244.63 13612606.62 115422.7017 13306704.69 25468374.19 11125676.08 7566099.025 15529917.97 13892641.81 18703944.57 3032279.371 12601216.96 14635156.52 17490287.71 20160560.58 13515892.73 12694100.25 16468931.83 8689060.298 11834056.36 4111.550781 12377379.43 83097.06834 13871382.97 13816025.29 11783906.4 22309630.74 8969451.027 20486002.04 9463101.54 2.166834726 9549403.832 4987.347151 25108688.98 13954231.11 9750436.356 9182396.417 4539939.237 13751958.01 14521494.19 6682824.728 8880454.687 21745125.83 12507195.56 7476654.796 22487015.06 11364553.18 10283687.5 16152378.51 0.02496359442 
57522.73772 19807330.29 15088603.04 8318744.738 13701855.85 13656590.98 9517032.11 7198444.348 15794457.8 20545092.4 13352502.31 18031420.22 8276726.287 8887490.679 14488939.93 15803310.09 8163208.933 16075412.25 17925671.73 12287957.19 12493512.06 15874104.19 8327455.387 14908579.31 9891895.04 9243392.981 9298814.345 19277051.72 15459397.43 9523795.335 14925867.62 2166130.33 7482308.37 8235819.302 6736031.885 18279842.77 13895650.51 16364062.59 248436.892 16199783.94 13568482.11 12675763.32 11281352.39 13185075.46 22512859.18 22366812.18 9637023.197 4433747.94 8088980.751 64.6994032 
13701081.97 13427985.24 14136360.04 13851699.39 15845374.03 7903122.478 8577623.619 7728576.674 25313372.19 94707.70785 18339446.06 12925187.66 11577099.74 12764893.66 18120627.87 16719519.16 15355601.63 8391390.885 4185138.389 6616993.239 7846456.184 132.9616531 12991860.79 11517052.35 7106098.881 13625070.84 4842168.029 11007916.88 182609.34 9172800.569 23058007.5 70.20587243 10766968.55 13321025.45 3232.231857 19424095.2 18571550.47 3222029.329 8301863.549 19360594.9 22024777.14 50.71342675 16489836.39 19134795.14 11860645.88 5923744.055 14666249 7573760.923 14337521.6 19954744.11 
9879975.342 5735956.989 14752172.03 16391975.61 16284973.44 5946787.893 1410722.444 13207344.23 22394467.57 18664439.17 10436844.21 6351520.381 21478902.16 0.9084127946 8594374.649 13816617.77 10764112.59 9179613.416 15059017.58 9974095.136 7706972.398 12671473.37 8543518.603 15211285.63 17199216.02 11799010.2 10216051.67 11485303.8 16670521.86 9059076.605 15458739.9 22841965.73 15111104.92 14442909.66 8079740.036 10317164.93 2878.715568 18761710.87 6874228.567 12139363.18 14051913.11 8475213.813 10436819.55 18349228.99 14604803.18 2724.721128 24355145.63 17543225.13 11032156.81 9538603.212 
21298065.22 9393475.333 14225857.58 11338880.87 10761178.07 1572.498201 4285.639779 16024.07689 17432092.42 15111847.86 13184027.47 16155819.66 17020630.18 21585750.04 8558292.791 1414819.89 14791925.11 18931704.97 13505632.22 7559335.106 16429765.39 11193996.9 39413.61932 8033100.652 8916454.975 14609007.9 31804.87293 13205647.76 15750831.08 6472611.457 8946557.757 604736.6989 19034163.59 16937921.34 11299847.74 9155352.669 15503614.92 11420027.66 10857289.32 23834664.44 12449842.84 17389929.41 11724641.33 14739796.36 1573529.279 17010766.04 19611520.35 14967736.88 7908025.922 14383584.83 
8930606.859 9983781.617 9248911.154 13794098.53 10872033.8 14726251.25 15715293.53 10156892.17 15855365.57 11294900.51 12291584.25 16865106.68 11079356.02 15709567.48 11248676.53 14506671.17 292521.8419 12464530.39 17012330.22 21254263.27 13754500.4 8225641.384 12461746.9 15056746.76 15898052.59 9051942.841 9490764.484 3197540.616 13118607.85 15695958.11 22268328.96 10013291.75 14130086.58 14231557.54 13704881.34 8358800.271 20435522.59 19773494.43 8918412.001 15870320.36 19992102.61 49926.56025 15468274.99 17787574.38 10893373.64 9014267.55 20360766.25 2.618937346e-09 7886761.736 22231885.68 
43908.0138 229.9298384 15376855.27 18336367.08 1521.197861 14162338.56 16663700.28 18759228.38 12712159.35 20743424.71 10876349.11 12443106.12 17860.56569 1609279.559 8794514.515 15408447.36 15655030.86 10391825.28 13780115.82 19683598.59 15168012.56 10876942.81 0.0002147721184 10246912.4 13827065.29 16934755.68 2594099.204 20185342.06 10092259.03 10822710.59 11307803.25 9563974.085 9148410.237 21085632.6 16785860.78 2199437.532 20893375.81 13306038.66 11530566.29 11054324.73 8919136.874 20071717.38 10523337.18 11580430.85 8466516.421 6353.030295 14235364.58 3844396.208 21292177.9 14623206.33 
13361599.7 17264825.54 8373889.225 15754687.03 9716269.679 7.629853181e-05 18508878.76 12438988.82 12736109.47 12763353.8 8359720.319 3650.472269 17626789.65 16787156.57 21044168.63 16164177.2 14408715.08 87.7541277 12768704.57 9458874.654 22218675.52 16436115.24 16126084.61 20156214.75 12701328.71 17350903.01 7658297.237 1473448.44 9482292.266 12974916.46 17018422.81 7008800.699 10717854.49 9970526.928 9876472.997 15334468.21 11310750.62 7744.816175 10171540.38 13472974.19 11213613.61 12880726.03 15440650.78 383209.9569 182.2269083 13729374.17 16649810.52 14551701.78 11987129.18 36241.28708 
10730298.01 10912462.29 9417327.379 563.2950889 21523719.09 15903136 16526884.45 272.6205384 11744769.18 12420933.81 21199137.78 8457758.733 15891516.19 7296205.878 11874027.14 17197568.29 9655160.818 12631372.85 14135031.63 15380135.45 11342036 10420911.9 3.235455474e-16 18159572.43 16734388.89 9009602.125 12162388.16 12099584.68 8613746.097 14498978.1 8498510.912 0.0006299008671 12314319.66 9558770.077 9385577.75 17044092.59 12139357.3 16823624.7 17285642.44 14126380.31 14702892.26 14999860.41 16801183.17 8143948.765 8372159.578 11208420.53 17496124.43 25302551.87 16835393.38 2.380548921e-11 
9557433.138 11435117.07 14149650.72 9399805.003 12538377.31 16002695.43 15691206.16 0.0002354708211 12409806.17 8243578.406 9488708.696 15983132.78 8497154.668 18090.25534 13291153.31 12424488.94 15695558.09 174913.4103 28055.0841 9833026.693 9271755.507 13966563.93 15115900.18 6565192.58 16680471.55 14675044.11 18759317.41 5573377.094 11216530.69 17180975.3 16449192.08 16289640.06 14427779.25 7463222.514 16457804.92 19152227.5 955820.5479 12241288.01 16188357.83 14854570.83 12510065.99 12900757.57 7135321.835 11982009.22 7830207.286 8261720.702 12255294.07 3882492.888 13934088.7 8369374.029 
39767.00656 16876872.88 15605612.8 10973320.11 13056091.8 15220457.76 16735079.13 11907091.24 14335086.39 10529490.6 14302780.61 12186292.7 14893704.01 7337029.712 82.02305782 14830715.11 8152771.972 10002033.18 8622449.887 9941815.095 11101764.76 20156864.79 19595298.35 18170730.26 122110.1545 12275072.77 14674179.17 13901215.98 14512848.38 9683382.847 7105596.81 16257202.67 17676452.69 8150.955558 14877424.41 195180.5738 13357825.55 7038820.818 9840754.639 1447039.493 7448698.612 16565835.62 183830.1217 17360228.35 12552604.83 10107198.45 8933350.94 17194829.57 0.1422332525 11128836 
13876764.09 12686428.58 17074554.43 20519697.19 17428252.31 14663057.25 11611073.49 7168870.81 9844936.372 15503846.87 11384583.64 18899025.52 16209159.46 14708468.12 11527234.11 14370755.03 14768166.24 13308037.21 13215272.6 292088.678 13766675.86 13995762.09 14171976.41 16884960.08 16927774.73 10015322.75 19846451 71476.41475 12646448.58 8729086.19 9127982.562 11180760.25 11525215.1 15622870.82 13313244.93 3850835.524 11238238.31 9400876.48 10373159.28 22379422.3 11771144.54 7693069.346 18267550.68 14692666.48 12627421.06 18714862.59 18577.92028 13799897.17 12293881.17 13007060.28 
16178357.04 16950418.07 15358751.79 12966835.08 13696983.71 17673754.78 17579883.71 526409.4445 18734572.84 10881342.33 8109530.429 12611774.67 12515332.14 9339232.295 11551347.83 13133215.09 15402086.19 11704284.16 9319922.007 13164245.63 17104976.86 13189651.55 14391906.16 7124986.37 20687775.3 8330240.744 6749238.419 11823023.79 11043491.76 18678416.58 8427436.772 19076731.38 4724516.427 7041600.821 11436400.48 11430452.29 14163202.69 13604167.1 14226619.59 16594891.72 16113530.1 9687331.49 14766317.05 16626071.16 8423792.524 11689206.23 8778832.14 19750759.71 2705.781862 10614281.64 
626982.5333 7540146.41 1175337.448 9438244.85 9581221.191 18667907.66 5431353.045 13010840.83 17489617.41 16490300.17 10818390.27 7479348.23 11088213.8 17724265.52 9282115.441 4352541.245 17796226.41 17452535.21 13169665.63 7244979.254 15837560.78 15840082.77 10947647.03 6086888.993 8074036.95 9708139.494 10106704.29 12046849.34 9619130.277 4060038.6 6.670955696 22133470.7 19636328.18 117.8492556 8.350783132e-05 19427133 14770320.55 6013713.472 17325878.48 16124476.96 16525368.87 14461815.88 13027901.41 7476987.688 19803946.38 18617469.23 19427283.97 16391531.6 8693182.694 15292725.66 
23670710.17 13259147.8 14942194.15 13079215.08 10655382.96 1021996.819 10393737.57 8242709.069 17803022.66 13862378.25 10048350.31 10840730.95 0.92228978 98.77664642 12845346.58 13920890.04 11064844.13 8842062.34 10197238.68 14714293.24 16101828.88 14114411.13 19404839.74 10133872.22 2404711.592 13063210.68 674.1889425 10046276.11 7024852.992 425245.2483 20090661.81 18442274.99 1050.187286 16877240.26 9312601.249 11909912.76 17046827.62 12866186.57 7820919.614 8429428.555 18714980.16 16562051.03 19559894.92 16261419.86 8133104.769 11362800.41 11707062.32 15553971.8 10406868.56 18838.4406 
12491446.4 9600673.746 8644499.766 13960828.34 15741166.97 5975397.659 18134941.24 3224207.15 13593586.72 11000561 12807374.64 12986883.13 14099641.37 13803701.09 14653069.72 9930542.935 22369679.22 11636565.4 11468628.88 11218777.99 11005650.67 17628049.24 16455679.73 13716878.46 9571335.964 7616357.078 2.226519849e-08 1.304571221e-05 12714050.33 14036468.91 14722496.56 11414884.7 6680389.294 13963119.56 7683959.778 11182465.41 19151010.85 12306920.57 13796365.79 11279777.54 7506415.274 16511937.32 7976508.141 17039849.02 21738391.82 12382666.86 14041084.78 17026730.53 13328198.29 18045656.02 
1760159.635 10117964.59 16775225.3 12087414.17 14746214.29 11269919.3 9084.043142 13461911.69 18410580.09 21794582.92 13964777.86 3064111.236 22037655.95 12825480.18 14334950.87 13677409.23 17534835.19 11927139.92 14489689.84 10265288.8 1863133.296 13306821.2 13390373.97 20455433.1 10774.02749 10001370.37 12272164.1 12314571.34 13726196.07 15345448.6 17790010.73 12179941.06 0.0007643809578 15292785.01 18508898.73 10632516.79 9499.707932 13759929.57 7625480.389 18701394.73 12412197.96 12450073.57 11389030.13 15278852.75 12599466.35 9377803.044 6195541.086 22371794.18 9726884.458 8.685873148e-11 
8855567.42 11979654.04 6840953.416 71814.70071 13816234.36 12388642.71 12478.88483 13972476.35 17744380.93 18639878.07 8663307.932 12001857.28 18934963.9 16050120.63 14826601.13 14949297.67 2268355.298 9483847.649 34464.7176 962784.3931 11079913.45 11342802.07 16012546.43 20483907.38 9827529.237 9647368.779 8840066.02 16869425.52 16910124.31 18288673.74 12729694.79 10536116.89 11719354.17 7591014.139 12743774.81 14376126.23 18701593.72 14367597.21 10736931.58 22797691.99 19467495.22 19471421.32 12574529.5 514669.5594 12695788.86 7573683.818 10662661.67 17942793.99 15076355.26 10050122.93 
14393309.09 1522863.165 13052537.64 14239630.82 12749882.86 12969888.95 15943773.92 7724947.579 10625187.93 26633485.83 9263500.242 14844985.89 13140558.16 15098299.98 14517667.01 20259042.68 11266948.58 14582021.35 7844143.558 20609656.79 8123447.131 13440191.33 9164343.618 9325722.757 130258.6101 14967621.76 48154.70771 12145925.04 14554.37066 19570878.52 390855.8684 63671.98115 11284601.35 4615320.886 17379904.4 569337.9597 10157842.77 16644667.81 8443863.844 4433742.602 12333810.99 13344927.36 15471413.44 9478877.178 12981198.42 15533290.87 11535386.56 8373253.259 67.27745727 12363905.01 
7899021.737 16828428.52 6097472.47 13585597.78 18225721.43 21949421.67 12313080.17 13511755.45 11431869.9 15134070.54 15304702.88 13572504.24 12665670.68 9402957.194 11809685.61 14386352.3 21964843.48 21142207.59 11515812.99 18557779.31 10517151.59 196990.1769 17526178.89 15118351.89 4460929.133 10658027.76 16129672.56 18064624.28 20749277.56 14565830.12 13116961.85 16135645.14 14235183.63 8364337.452 11014745.34 12555454.07 4330203.045 12921675.18 11598109.96 19650020.37 10372.85145 0.0002944116585 4164105.741 2195455.029 12725672.72 12424410.88 11314754.88 10642775.03 11872732.57 9586981.388 
11415589.29 6300652.499 53120.11787 8505788.487 4803661.231 14044640.23 18706025.17 15963443.08 23112245.3 1.565329386 15297331.91 21676.95155 4550493.688 13684757.86 6563184.055 6494146.127 8885183.178 2212451.929 3916.585493 6400.679248 71.73730563 5930849.669 2277.575555 8991420.395 20140134.99 3873231.687 16334760.93 963947.386 23846539.58 9038483.755 20975372.39 0.005691461102 12916557.23 14891379.27 8089893.188 9467295.399 17738122 131450.9498 14258072.93 18950808.72 8475470.329 11462653.6 43.90730078 14690550.15 6580710.639 10718216.99 11310566.51 12648853.28 20136084.48 19525389.62 
156982.2786 14739600.83 104793.564 12202169.46 13695033.27 13118731.73 15403239.94 56681.91918 4.132140441 133564.5329 16915753.9 16220702 15498663.47 11992029.72 12507676.33 11852465.75 12142681.25 471106.226 17842191.11 16126324.44 13150738.5 18524966.02 184305.3395 17832083.49 16381343.42 19655321.95 14239702.45 66933.97312 10888617.97 8114633.446 13728196.26 5474004.601 12897523.2 17761880.8 19876604.19 13708903.78 19055734.56 9592.476436 14612265.61 18852249.82 9662361.469 15751411.79 16684056.73 706362.7341 15582802.02 11346547.91 11183686.28 17677409.72 12807031.13 11233345.72 
13938214.7 276.7828157 15690122.64 15095504.01 10262544.7 8421166.517 11722738.61 142646.4448 4436238.593 15283090.99 13692257.2 17133547.14 14392487.03 8246603.726 10355763.72 12578676.83 19191651.88 1407.632976 1306519.933 5465498.208 21633675.08 16685396.98 17653265.82 12042273.08 11229200.5 0.5884258587 10633035.14 8951614.521 3690559.865 10920881.06 9933706.027 46472.00793 13049002.06 18010384.8 12873293.3 16176065.38 7881040.514 18418814.68 12403034.79 14786767.08 13851752 15903031.81 15071658.8 586406.9265 11277498.21 10622393.84 11745427.07 8823613.741 9410271.862 16553718.59 
0 19376463.7 12888894.56 10935074.55 27.76204487 10663365.85 9420127.567 13223097.84 10956123.43 8898937.073 8312619.863 2481601.162 14754699.65 8512351.123 35502.66469 10087407.61 255752.5817 7.793128619e-05 8606697.425 10270849.5 9031223.973 13394779.76 15554293.47 9530042.914 14890029.32 6088576.454 8204446.223 7982826.72 17938308.34 15070039.43 10268647.04 11305297.37 15645054.65 10381596.58 19285437.21 11403070.72 1071520.608 14737106.94 17452892.95 15924538.89 12080361.33 13775880.8 10236776.78 15865274.76 10517038.61 14774740.1 258.8572753 14297751.19 14085076.63 12011415.39 
13159705.15 10028353.13 45797.07172 6868159.95 18307935.16 18409454.83 13108362.02 6904578.959 0.1853301391 15519141.49 417.41062 10734447.18 10476277.31 15376187.37 10673535.23 14708.65211 8001228.732 7665166.693 18952157.53 7947259.344 10835703.93 11845305.19 7763969.257 13204004.19 10582343.79 15186837.93 2892218.099 5086921.478 1545592.635 7989276.123 14233959.44 18261945.41 6.41999793e-14 11152360.31 126.8465455 19184050.7 7880.732564 7661676.833 3635234.638 16760283.89 7540187.183 13489125.58 2.61093345e-13 9748846.104 14217213.32 8098298.363 7512069.181 10158516.73 15296282.07 12601319.85 
14117339.21 11113496.18 15781951.5 10897411.21 17120833.64 14792805.21 15826776.65 6788715.717 16978685.53 9828673.483 14588704.82 15653339.7 15574336.54 12399559.44 9858873.87 12916711.4 9645513.629 14913339.41 14544417.03 7212866.13 13946605.53 152973.9233 11195488.74 13408795.84 5418505.203 15651189.11 84237.09967 15258102.97 13346969.72 10215864.47 14483312.96 9784253.424 17288201.54 9347754.464 10387425.8 10180020.77 10889115.16 17055138.86 14905848.84 15035986.44 11702861.76 12490923.13 7924072.454 57391.61229 15208381.55 400170.2075 12766926.95 12505165.37 11608305.14 16910864.15 
7934393.467 16429088.52 4736771.763 14932813.72 16971.68506 14938265.26 17586785.64 992.751813 12044417.09 8101834.539 10248793.44 12.09176793 17466029.36 11239206.42 14720371.16 10583479.21 9267002.039 14118913.79 11799730.97 14256282.93 9672334.451 13987792.18 12982450.34 8549531.773 20764541.34 10789430.12 7928237.678 15723802.6 20054981.31 2169020.201 13391589.29 13693823.62 21792069.33 9491179.832 19217085.21 17922954.82 8416178.801 17566624.12 12159130.21 11582714.14 12235200.96 18772302.36 7919401.659 13345783.06 18446765.33 17631267.39 12743306.96 19840587.23 13917384.1 1.461496384 
16131891.7 8979468.955 22834501.61 7485.481117 6150920.539 18808667.45 19147726.11 8953635.185 12202992.25 17204091.97 13311675.28 12813581.96 95.48464699 21694894.31 863647.7459 16998727.15 1447350.972 14819562.63 580925.6452 7894176.941 14877462.92 8416283.197 6223404.383 14782948.12 11342172.94 15842881.16 7346967.822 15340309.96 12511659.7 2769.588154 44113.09445 9116621.368 16044206.56 9402313.233 7905836.197 16368866.09 8805258.808 15245180.05 8863746.991 14068211.63 9786515.822 7216104.241 17741170.33 12091878.11 8592953.822 11922280.33 11515842.57 9647770.331 16831088.07 12703127.38 
12664095.78 9726357.319 14076090.73 8222693.837 3652102.796 13856104.26 6770466.683 9711146.924 1456092.364 16254649.73 20.28467541 11932599.13 11067599.45 7572400.378 15300180.34 11626816.77 7285093.199 9435387.201 22772291.12 16052335.59 10605293.6 10965154.36 9383666.976 7965.235587 981.7187947 14850115.35 7817198.486 7462124.604 21094223.99 9287528.177 12740321.59 13452859.34 10307490.02 6022188.513 16055234.24 6126190.405 9147488.372 14502152.93 18655792.5 12575296.14 3359365.334 11469711.63 18126255.01 17567973.7 11732735.96 4961434.792 14454124.17 19466762.65 2515229.871 15344746.19 
12028013.73 10066441.68 2355248.584 17147524.56 8698925.394 8907664.947 6941462.743 17257366.31 14001528.01 11006301.76 19078986.33 6302491.938 12195752.15 13501684.91 35557.48095 7521870.176 17316503.33 7799650.808 12462561.91 6535771.762 17151871.13 10984272.69 14716473.72 12674337.78 12777583.24 16967183.77 18970750.43 7815402.002 6958155.436 18708663.63 10936636.51 11903611.39 3495857.293 19871475.02 15111020.9 13956727.21 32920.47166 21292513.35 1530895.68 9731998.026 19621504.11 8828801.596 15875266.46 17592391 16807048.64 15254631.45 12249894.79 4555.358271 77818.24179 1.101637403e-33 
13347920.72 8238228.496 14853910.01 8702830.046 25320.58196 17007074.45 124226.0644 15488692.71 10107831.58 11540949.43 13073718.12 4016818.326 19763450.18 14297214.29 8934423.294 14337194.67 15567164.71 2476459.068 16170896.16 14102875.87 13696492.28 4.315650645 8260715.691 9594467.571 8.426321734e-05 516350.4334 8333728.814 2496057.338 13095403.47 3593181.404 750879.1363 13843321.48 22592524.86 13143314.75 13980502.77 14365631.56 10518289.29 11455700.13 11400451.76 14745685.45 12135162.74 11736622.95 11084858.34 8073354.547 11618203.26 13519482.87 16931119.91 10582169.41 20425014.69 9383705.018 
11596443.24 16668999.73 11043820.59 8997693.106 16561447.55 9371618.713 6881006.609 12110832.83 7859027.702 16158361.15 10355064.36 226879.0929 2332111.939 8508001.415 9137594.11 10307272.8 10660415.44 26463.14374 15725243.85 3768511.563 12585620.5 13767423.76 7460928.137 11346658.08 12537937.25 10097254.85 12741860.27 22060206.42 10223659.05 10873.60976 19665426.3 16902984.14 13379051.77 12558031.79 6803827.419 11369.09997 11562191.8 17484941.84 17269434.77 13528747.26 8172899.694 3458.924519 14479744.31 9525017.61 12212254.37 16928860.73 12969724.02 13428705.76 10420270.06 7532863.059 
17273066.52 15701976.9 13367379.98 10320720.45 9822157.73 9577492.258 4512315.317 7636391.336 12143585.32 15403347.93 9246130.412 12778567.06 16454366.09 11884685.71 15808654.97 17646822.79 18229193.36 546478.0868 7496.446871 10307137.83 11331187.55 14198969.05 11636694.4 11485887.4 2796924.006 12517224.64 346346.7038 15294466.22 20294900.58 13335389.5 9951124.642 15300797.65 11103657.84 12264151.9 8492183.068 12481664.01 16575290.35 8955908.241 8545.143 12568366.21 17736313.18 17814322.68 10756159.74 8115419.693 21504690.66 7972194.766 3733981.94 21772988.6 7144906.084 21151844.17 
0.01035041598 14325128.87 12658661.75 12396626.85 12697877.35 1082916.85 3742098.993 965979.9457 11109671.29 407559.15 2640964.33 10686006.51 19954132.6 15997273.74 27435831.48 9223631.474 6482834.806 12813865.75 15544044.48 9737064.271 15110246.97 91358.90194 13238152.82 9870580.41 11618578.57 15327.10662 13416426.97 13083174.83 16044919.24 16103634.77 76889.24911 11913452.76 10035290.1 431997.7598 7682843.94 14203410.87 7988083.781 16959163.91 7828488.992 13905798.31 18724049.34 13801546.22 18357203.86 7865974.37 8493481.528 10958803.38 11412944.19 16597716.89 8935642.319 20488207.14 
13842765.51 14524662.28 11070192.19 1.605790729e-10 22882980.92 11305361.1 8573801.049 15836085.1 15121227.68 11005468.23 14984448.44 4668546.637 11153117.73 12241771.4 13809090.63 9475792.363 157073.3313 15936724.72 13378095.2 7484814.023 12340576.96 768133.2709 12186260.17 12086314.4 16165889.12 13895325.6 14992770.78 15542066.4 17094498.46 13123070.77 9241083.597 14145116.91 2594676.87 42.86356864 7478410.83 12111654.2 7283212.893 9105597.205 13101075.38 5279432.829 5703.914258 9207530.824 10029394.02 8573947.007 13253052.71 7807712.644 13083065.82 8007017.615 15556061.3 1531527.773 
701076.2911 20548302.21 12898062.32 15098469.12 15914020.65 261079.0401 16182979.75 15574075.22 13287323.89 653342.3399 12214598.14 8586855.713 7388747.902 1853168.741 8092783.81 1282.004258 19842004.05 787118.1461 11901.08281 9911.065816 14642565.63 13398296.91 11814332.95 18797440.03 9425136.092 11334285.97 9005067.229 14084039.85 37.61573464 7155493.019 13488986.05 9947162.545 13691656.44 14518459.46 13021869.91 16530871.38 2727.527004 12856847.37 12846569.26 14638509.47 947.8499362 10530339.96 14321102.91 9045660.647 13567035.96 3353307.174 6610245.85 12761281.25 9512461.167 17693961.41 
16332926.48 12275241.65 8331818.94 9895267.733 12834547.05 16129848.61 14660672.06 15677639.27 11452729.77 8309027.254 8884993.136 8750022.094 16915295.99 13413037.83 9277409.595 0.09972137898 7082997.504 11277556.58 3597824.969 14215708.6 9994889.581 14414103.77 14261699.49 11373026.96 14266217 916831.3617 0.2753243053 1805.848959 8156764.487 18655910.89 10630985.95 8727884.307 12464104.12 8609090.336 14389705.65 8987415.656 11191093.49 8133943.701 18121161.5 12239311.33 15100435.13 10986117 9522286.465 4698159.209 256.5052821 18302772.66 10983938.25 14921694.29 11453299.72 11566131.47 
19016573.07 8375358.873 17478249.66 9581940.497 13663356.84 10719101.65 18076899.65 12919196.37 10105333.66 428801.3235 11539698.77 19863336.85 1448690.452 9340601.513 20251679.88 894235.9639 9965337.733 14381317.69 14497033.14 71528.77889 10098266.01 5571688.89 9221199.09 9725623.231 16794503.4 15769002.34 11782961.09 10556785.05 11414297.27 8624304.059 5365388.327 84454.88439 10605629.93 17745601.65 1994.704824 4521924.908 12848813.75 8598.239496 7204384.612 407897.4182 17621882.16 24.35991213 9733303.989 17891871.66 2551467.268 11862525.85 12140279.68 7756400.305 4563947.337 18699514.4 
12416118.5 7203415.928 941.4077036 14705520.83 9909431.169 11159707.15 16730843.65 15352093.9 21850124.96 14197351.83 11096018.14 10611499.64 9169029.921 8159201.705 11206924.74 17295545.44 15828230.12 8816118.127 10509155.83 11657568.31 10285403.15 19776.83623 43288.95566 18313254.5 686762.1631 1034592.73 15948431.37 10243023.59 15496920.07 11861520.59 11780238.59 7629080.921 6179061.404 2688837.951 8104551.356 3790954.357 9071367.191 13427106.82 7933085.26 2075059.048 10380767.67 243302.6474 15581169.98 10693761.92 10697477.87 1.648005787 20446008.1 42737.34218 1865740.758 155582.848 
11590323.2 10569631.03 209.8385736 13973462.48 14667013.71 15299120.13 12001.41379 11690109.4 11040366.27 18372286.42 10525512.98 15683138.81 13632619.26 12526346.65 10152586.66 16351130.86 8796354.667 1083923.44 15950264.54 9240061.288 11151799.2 12247383.26 10304156.76 1236.331089 4084.690621 8812879.982 13559873.66 6547860.019 3795115.434 17232637.58 7294907.695 12725641.35 7972053.91 15292951.68 18432263.45 13378087.56 9488705.622 15543011.17 11292926.56 9845172.867 14248903.68 6368965.63 3865601.614 8174848.358 8758823.516 18716956.95 15694944.33 11272444.34 9168635.199 7197761.652 
16003315.75 7394442.972 12579056.3 12852618.69 9235625.274 12375334.1 9.888328742e-17 10913433.84 214811.425 12183410.14 6809055.549 15064.26182 11721419.83 23619181.23 12104881.35 1213958.975 15234763.57 9404206.217 8306905.875 17107665.99 4078469.882 6820061.21 14800434.99 9165892.128 9121083.352 11089930.86 9444320.218 7169114.158 8421872.38 11480107.14 17559384.41 10349389.53 16860161.75 17361852.34 11954554.22 9410513.51 13017888.79 97.78472949 12004533.86 308215.9195 5808039.928 18838230.47 6415691.56 9511119.527 16293238.13 8349355.18 12426012.67 15627300.86 510276.7298 9734763.718 
20811132.62 232021.1258 6449375.412 15993884.91 11699071.93 3920539.256 10230261.2 7731295.067 13509437 5315586.174 19910015.96 4343803.367 16184333.56 11355830.32 17811302.31 3181838.732 12451728.34 10701266.52 18612.96846 16666146.86 8021874.585 6717236.769 13512696.57 8276786.097 11388167.92 13601538.56 15184513.04 7932630.555 9917291.46 6136125.925 17129993.59 12907359.72 14059890.86 20175228.1 12523235.18 13734187.4 11348531.85 13544700.71 4531548.96 15714003.13 15215.1148 11466432.64 9106514.611 14360274.71 6650564.14 16672932.62 6881836.988 12038651.1 4087067.241 0.4105464007 
14401546.29 4489333.171 12138208.06 4192802.358 16080204.97 10840525.66 7948642.82 12030986.54 314421.2092 12804102.6 11646686.82 9144747.24 17691163.89 2243116.67 735591.7988 11096263.67 10778682.04 13838078.5 7892693.365 7136059.659 10875621.78 19777629 15934720.8 9121969.065 10566797.04 25783150.59 11880049.24 14043308.87 10083351.49 2597372.023 330.1522401 15562496.5 138.2083474 12837001.12 16177786.49 3970681.217 18796996.52 15804799.08 252895.1463 16885802.34 9748138.26 1591039.777 8454664.61 5816.850589 10417914 251039.4655 19807389.2 6.286337509 15536.6732 2655800.865 
14609070.24 10037192.53 10761266.26 1054.855218 11014314.7 85209.3865 11336156.51 9876066.205 8894136.836 17204413.09 15848107.77 7773007.017 18477751.24 8429368.49 49567.10573 12682910.13 8647639.135 10365602.02 8135268.089 15047675.54 20193704.6 22407280.3 1007312.734 13068715.05 1848620.779 147078.6587 6741831.191 11770715.7 47689.63648 8130968.371 15444184.39 12098943.1 404601.2281 636.9282961 13756557.59 15492039.32 15488940.92 6301994.9 10933346.36 13951382.31 14514039.87 1985677.644 14460372.36 12054721.24 1.704969257e-09 18870424.88 16996365.38 9352103.052 22664025.46 14363510.4 
400050.8497 14668628.39 15098633.04 16830915.16 19564326.85 13833313.25 12430478.61 13184506.02 5692990.603 259181.4218 13793442.29 8922474.27 14889525 13966865.45 10116568.58 8128991.422 0.002854894761 24102475.47 12274325.54 16616712.85 13777843.06 10179824.5 12764088.79 88810.11632 8405347.373 9148417.146 54842.51767 13580668.47 460926.0944 11388858.42 8903762.847 3890949.958 4353963.802 12988366.67 7186747.321 6797793.593 12761925.81 14032653.5 13542710.49 3.382965399 6679121.61 171.9092599 13211065.32 10696540.36 6280143.358 8970268.723 1.423939063 8969275.526 9470428.589 12996741.43 
16861304.63 19325.45204 10626247.18 12422014 17524518.78 13613228.34 8365123.185 16743041.76 439601.9042 12716198.37 13943407.08 8482087.246 15833089.12 10798836.93 3593044.667 19189383.03 22738137.81 12949169.44 13986698.79 16420802.48 12232271.39 13384406.44 5192.808172 221784.1986 12621148.98 3006899.541 17538981.72 5197468.092 31136.35402 5849939.389 13694566.39 15249757.53 13670356.9 1997579.057 11070137.41 7379910.687 0.1272620378 5734410.326 24960541.3 18286049.24 158340.3679 13122036.13 9592820.88 13315857.61 13560891.67 14901218.68 2806.480123 16519534.02 26244.84122 10990275.36 
# Events [H51_split_1/H51_split_1_1570867080.x_y] N:
2 6 9 5 6 8 8 13 10 5 7 6 8 9 9 4 6 6 4 4 4 2 10 4 11 6 9 10 3 6 5 9 3 9 3 6 10 7 7 6 7 8 15 7 7 5 8 8 5 3 
12 6 11 11 6 9 8 12 11 8 13 11 11 10 13 8 9 8 7 9 8 5 4 9 18 4 7 9 7 6 4 10 10 7 8 7 10 10 10 9 8 6 12 8 8 10 8 10 10 4 
6 3 5 10 2 6 10 8 10 11 8 8 7 10 4 8 6 9 7 10 9 8 8 14 10 6 11 9 11 5 17 4 7 12 12 4 11 8 7 9 10 6 10 10 4 10 2 10 10 10 
2 8 11 10 6 7 8 7 5 13 9 5 9 4 8 13 9 12 9 14 9 5 4 5 8 13 14 6 11 9 8 6 8 13 5 7 10 12 9 8 9 11 5 11 9 10 8 13 12 4 
11 11 8 3 15 7 13 7 8 7 8 6 12 10 10 7 8 10 7 8 10 11 11 11 11 7 12 8 8 5 9 5 6 11 13 8 4 5 7 5 6 7 7 8 8 9 5 8 8 5 
8 8 11 10 4 11 12 6 12 14 4 12 12 11 11 9 8 15 11 14 7 12 10 10 9 6 7 13 8 5 11 6 11 12 6 10 6 12 5 6 4 10 8 6 13 15 9 10 6 3 
4 5 10 9 10 7 8 9 18 6 13 10 7 16 12 6 12 11 8 13 5 9 8 7 6 5 7 11 2 7 15 3 7 10 12 10 8 7 4 14 11 6 11 9 5 7 7 2 11 8 
3 9 10 9 12 7 12 7 10 7 11 5 10 8 11 7 8 7 14 13 9 9 10 7 7 12 10 8 9 6 6 14 15 15 7 8 5 9 6 10 13 10 5 13 12 11 9 8 12 6 
10 8 10 10 8 5 6 6 10 8 8 10 9 19 6 11 7 9 8 13 9 10 7 4 8 15 6 9 11 11 8 7 14 8 12 11 8 9 9 11 6 9 7 11 6 12 14 8 8 8 
6 10 6 10 7 7 14 7 14 12 4 10 14 9 11 12 5 10 14 8 6 5 5 6 10 8 10 9 12 10 19 6 8 6 16 4 5 6 11 8 12 8 13 7 8 5 12 3 7 9 
3 4 10 13 4 11 9 6 7 10 11 4 6 8 5 12 10 8 11 12 12 9 5 5 11 10 8 11 3 11 5 11 3 8 5 10 7 12 8 2 7 10 14 10 8 8 9 7 9 11 
7 11 5 8 12 6 9 10 11 11 6 9 10 9 9 11 6 8 8 7 12 5 13 12 9 7 5 6 14 8 8 7 8 5 9 10 12 4 8 12 5 7 7 8 7 19 9 6 7 4 
8 10 8 11 14 10 11 6 6 5 11 10 8 7 6 12 9 9 9 12 4 12 4 11 9 5 11 6 12 8 4 6 4 7 6 12 9 14 15 11 9 12 13 12 6 6 8 16 9 1 
7 7 8 5 6 8 9 6 7 15 5 19 7 9 5 7 7 4 9 10 6 10 7 7 11 14 12 14 9 14 11 8 8 14 10 7 6 13 9 9 9 6 12 11 11 5 10 8 10 10 
6 13 9 6 7 16 9 9 6 5 10 7 7 12 5 9 10 10 6 7 15 16 7 9 9 4 10 6 11 8 11 12 6 3 5 4 6 10 9 5 6 9 9 13 10 10 8 12 7 4 
7 5 17 10 16 9 9 9 7 11 9 8 12 6 5 5 17 5 7 7 10 10 8 9 10 4 19 8 6 11 10 8 12 12 5 6 9 5 12 16 13 14 10 15 5 9 6 11 9 4 
9 9 4 7 12 10 9 6 9 5 10 11 11 4 7 11 11 8 8 9 6 15 7 9 10 6 7 12 9 9 8 12 7 9 4 7 10 7 9 7 12 13 7 15 5 9 11 11 7 5 
11 9 9 8 4 10 7 9 9 13 5 3 7 9 9 8 7 7 10 10 11 5 12 9 6 8 4 14 9 7 10 9 10 5 1 16 7 8 14 15 13 6 8 5 7 13 9 7 10 9 
11 4 7 5 7 4 3 10 11 7 7 7 3 3 5 2 5 7 12 9 10 8 14 7 6 13 4 14 6 9 12 12 8 9 13 4 12 10 7 13 8 13 8 4 5 5 6 9 8 4 
9 8 9 9 8 10 9 13 10 12 9 9 7 5 6 10 10 9 13 9 7 11 7 12 10 9 3 9 5 11 9 7 7 9 10 7 11 9 7 8 9 17 10 14 11 8 7 10 10 8 
3 9 9 6 7 10 4 7 10 12 9 8 11 6 11 10 12 12 15 11 7 7 11 15 6 8 5 9 3 7 7 6 9 10 12 4 3 6 7 11 17 9 10 9 8 9 8 12 4 4 
13 10 5 10 10 11 3 8 13 13 6 8 8 8 8 8 14 7 8 7 5 13 12 11 3 8 6 9 7 12 8 14 9 8 8 10 15 10 11 11 12 9 2 7 9 7 8 10 9 5 
5 9 8 10 10 7 11 6 10 13 4 9 6 3 9 9 7 9 8 12 8 11 7 7 6 7 7 9 9 15 6 8 9 6 13 13 4 12 9 14 11 11 9 11 9 13 10 7 3 3 
7 8 8 11 7 11 7 8 12 6 9 4 9 3 6 9 15 11 9 6 6 9 6 10 6 9 15 15 15 8 8 9 7 8 8 13 10 10 7 11 7 2 9 11 12 18 8 12 7 2 
5 4 6 12 5 11 15 15 14 5 5 5 9 8 10 4 6 13 7 6 6 15 6 9 8 3 12 10 22 3 11 3 10 7 8 6 8 14 9 12 6 13 7 6 5 8 10 14 10 9 
7 5 3 4 10 10 11 8 3 10 15 15 7 11 8 10 8 6 12 10 6 11 11 10 14 7 12 11 8 5 7 11 7 8 8 8 12 3 15 12 7 11 7 7 11 4 8 12 9 6 
8 6 14 13 8 6 12 13 6 11 7 8 4 4 6 4 7 7 10 6 12 12 9 10 9 6 13 3 6 6 9 6 11 13 8 16 8 14 6 13 7 6 11 5 10 9 11 8 12 8 
0 11 6 5 5 9 10 9 5 7 10 2 7 6 3 10 7 4 9 7 7 11 8 12 13 10 8 9 16 14 10 12 11 7 15 10 10 8 13 9 16 7 7 10 14 10 6 14 6 8 
6 9 5 9 7 8 10 11 4 5 6 6 6 9 11 9 10 9 8 13 12 5 10 11 9 11 11 15 11 9 10 17 3 11 6 8 4 9 11 10 8 10 1 9 3 9 9 8 7 6 
8 5 11 4 9 9 9 6 8 7 13 8 9 15 10 10 9 7 19 6 15 4 10 9 12 10 2 9 11 6 12 8 7 5 13 13 9 13 10 8 7 10 9 6 15 8 6 12 10 7 
1 12 5 9 5 9 7 5 8 9 12 3 14 9 7 5 11 10 8 10 13 10 5 9 8 4 6 8 9 9 9 10 10 8 12 8 8 10 4 6 7 19 5 11 9 12 10 13 9 4 
7 6 13 6 8 8 8 7 10 14 7 12 7 10 5 9 14 10 6 11 12 10 6 12 8 11 10 10 9 10 8 4 8 5 15 7 9 9 4 8 7 15 7 11 16 8 13 5 10 8 
7 5 13 15 3 5 10 8 5 10 5 7 6 14 13 8 5 12 11 9 8 7 11 5 4 18 10 5 12 14 9 11 8 10 13 9 6 9 16 8 5 11 7 15 4 10 12 13 10 6 
9 10 9 11 11 13 8 8 10 5 9 6 4 11 7 6 11 9 9 5 15 10 10 12 10 10 7 5 8 16 9 4 6 11 13 12 8 15 9 12 10 7 12 12 11 12 11 5 6 1 
4 9 15 6 6 11 7 8 10 7 11 5 8 6 9 5 11 15 12 11 7 5 12 8 6 10 6 10 8 6 12 10 13 5 7 14 9 8 13 6 6 10 12 8 12 11 14 7 13 7 
5 12 12 9 7 7 7 13 5 9 10 6 6 9 7 11 10 2 10 5 9 5 8 7 9 7 12 14 8 7 20 7 7 9 5 8 8 8 11 10 8 8 7 10 2 7 11 10 10 8 
5 9 7 1 7 8 17 13 9 10 12 12 8 9 10 9 13 8 5 5 9 9 9 8 8 9 7 11 11 10 2 6 5 12 10 8 8 9 6 9 9 9 7 6 12 13 7 14 7 11 
2 5 9 5 5 8 8 3 7 11 10 9 14 6 11 5 11 7 7 7 12 8 6 10 6 9 12 11 12 6 4 6 7 8 3 8 8 9 5 3 9 8 12 9 11 9 5 9 11 8 
6 8 10 4 13 6 8 4 14 11 5 7 8 9 6 7 9 5 10 7 9 7 12 11 10 16 9 10 5 5 8 8 6 3 14 13 10 13 9 11 6 9 9 6 10 9 13 7 7 5 
10 18 11 8 10 3 5 11 10 6 4 9 6 8 8 8 10 8 7 8 9 12 9 9 10 10 10 5 7 7 11 8 6 10 11 13 8 10 8 7 6 10 13 7 15 3 7 8 8 10 
4 6 12 8 7 5 7 8 10 7 9 12 11 9 5 8 5 9 4 6 10 12 14 9 13 3 9 6 8 12 11 8 9 5 10 7 7 9 11 7 6 8 6 4 6 11 8 10 6 13 
7 4 12 6 11 5 12 7 9 5 8 9 14 10 11 6 8 9 5 11 8 6 10 9 7 12 10 7 11 12 10 7 6 9 11 8 9 7 7 6 7 4 11 15 8 10 9 8 8 9 
6 8 7 7 7 4 13 13 16 10 6 8 8 7 4 11 10 12 6 10 15 6 10 12 6 7 11 11 5 6 9 14 9 7 10 6 10 6 7 7 3 10 10 7 11 4 10 8 10 3 
4 9 4 8 10 9 7 8 6 11 7 7 9 7 7 11 10 8 8 5 10 10 4 8 8 4 8 9 11 10 8 5 5 13 10 6 5 10 8 9 9 4 10 8 5 16 7 10 9 5 
6 9 7 7 15 11 3 10 5 6 14 7 8 11 6 9 9 6 6 13 5 7 5 4 10 10 5 7 7 8 13 5 6 15 8 4 7 8 13 9 10 9 8 5 11 6 8 11 3 2 
12 7 6 5 5 11 5 4 7 10 10 7 8 9 8 6 13 11 10 5 11 8 12 4 7 10 10 6 10 11 10 11 9 11 9 8 9 13 6 12 4 11 5 16 5 10 8 10 6 1 
11 8 10 7 9 5 9 5 6 6 5 5 10 6 5 9 7 7 6 13 6 12 16 8 4 12 10 9 10 12 7 7 4 2 12 11 8 13 3 12 9 8 4 7 3 7 13 5 8 3 
8 4 8 8 11 9 10 7 7 12 18 6 8 10 3 8 9 5 8 5 10 17 11 12 10 8 12 12 5 6 7 6 8 5 6 11 11 8 6 3 12 4 10 7 2 10 8 11 10 7 
6 9 12 13 5 9 9 14 8 6 13 6 7 11 3 13 1 12 11 7 8 12 5 6 8 9 9 5 9 6 10 5 6 9 5 4 6 17 9 10 9 7 13 7 6 8 3 10 6 8 
11 6 9 6 9 8 11 10 11 10 11 8 16 8 6 5 11 10 4 9 7 12 4 4 9 7 9 8 5 10 7 11 6 8 5 6 3 13 9 9 5 10 10 11 11 10 8 16 5 4 
