# Format: McCode with text headers
# URL: http://www.mccode.org
# Creator: McStas 2.5 - Nov. 19, 2019
# Instrument: /zhome/89/0/38697/TESTS/2019-11-20/McStas-2.5_CPU_MPICC/ESS_IN5_reprate/ESS_IN5_reprate.instr
# Ncount: 1000000
# Trace: no
# Gravitation: no
# Seed: 1574226575
# Directory: 1
# Nodes: 10
# Param: Lmin=4.9
# Param: Lmax=5.1
# Param: lambda0=5
# Param: Pulse_width=0.002
# Param: Num_pulses=1
# Param: GUI_start=2
# Param: FO1_DIST=6
# Param: L_ballistic_begin=19.5
# Param: L_ballistic_end=17
# Param: Length=100
# Param: SAMPLE_DIST=1.2
# Param: DETECTOR_DIST=4
# Param: GUI_h=0.105
# Param: GUI_w=0.1
# Param: GUI_GAP=0.05
# Param: H1=0.167
# Param: W1=0.116
# Param: H2=0.185
# Param: W2=0.15
# Param: H3=0.19
# Param: W3=0.15
# Param: H4=0.213
# Param: W4=0.14
# Param: H_chop=0.075
# Param: W_chop=0.03
# Param: H_end=0.042
# Param: W_end=0.0215
# Param: ALPHA=3.4
# Param: M=3.5
# Param: F_slow1=16.6667
# Param: F_slow2=0
# Param: F_fast1=0
# Param: F_fast2=200
# Param: N_fast=1
# Param: SLOW1_THETA=120
# Param: FO3=1
# Param: THETA_fast1=180
# Param: FAST_THETA=5
# Param: Gamma=0
# Param: Etun=1
# Param: V_HOLE=0
# Param: FRAC_QUASIEL=0
# Param: FRAC_TUNNEL=0
# Param: TT=50
# Param: RES_DE=0.5
# Param: port=30
# Param: cold=0.95
# Date: Wed Nov 20 00:59:04 2019 (1574207944)
# type: array_1d(1000)
# Source: ESS_IN5_reprate (/zhome/89/0/38697/TESTS/2019-11-20/McStas-2.5_CPU_MPICC/ESS_IN5_reprate/ESS_IN5_reprate.instr)
# component: TOFmoderator_zoom
# position: 0 0 1e-06
# title: Time-of-flight monitor
# Ncount: 10000000
# filename: TOFmoderator_zoom.dat
# statistics: X0=1306.2; dX=639.778;
# signal: Min=0; Max=3.75409e+08; Mean=1.46652e+08;
# values: 1.46652e+11 6.66016e+07 9.62757e+06
# xvar: t
# yvar: (I,I_err)
# xlabel: Time-of-flight [\gms]
# ylabel: Intensity
# xlimits: 0 5000
# variables: t I I_err N
2.5 2691.324634 2117.303689 24 
7.5 32857.09577 10095.65621 61 
12.5 67662.254 19006.85823 99 
17.5 245487.3259 46785.10584 893 
22.5 669200.3077 70547.68527 10537 
27.5 1861143.776 91891.77407 16609 
32.5 4040784.822 103437.7566 20598 
37.5 7740257.123 136940.4007 21850 
42.5 12586699.36 202745.5488 21531 
47.5 17840445.97 243440.121 21755 
52.5 23125039.15 298511.918 21380 
57.5 29374480.12 345741.6616 21609 
62.5 34615398.98 384810.389 21632 
67.5 40682020.24 432759.5402 21675 
72.5 46304227.16 509186.9838 21276 
77.5 53216540.79 571873.9037 21622 
82.5 58908351.82 613049.9551 21777 
87.5 64182344.97 645744.5266 21537 
92.5 70030559.88 684497.546 21787 
97.5 74803675.95 736263.2677 21598 
102.5 82495857.18 810107.763 21978 
107.5 86813877.25 847418.2887 21753 
112.5 91929237.04 881731.7501 21783 
117.5 95658293.94 906734.7236 21646 
122.5 103049329.7 958409.6645 21912 
127.5 108624816.9 1047844.939 21830 
132.5 112865764.8 1062418.485 21669 
137.5 114612641.3 1080386.827 21308 
142.5 124139539.2 1150898.746 22043 
147.5 125861992.9 1154262.614 21652 
152.5 129642545.3 1189584.604 21643 
157.5 137858977.5 1278335.202 21930 
162.5 139667095.5 1288700.107 21830 
167.5 142585925.5 1308998.452 21519 
172.5 147167779.7 1360777.137 21544 
177.5 150353692 1379434.705 21644 
182.5 156225126.8 1435348.265 21747 
187.5 158069114.4 1453159.415 21587 
192.5 163299016.5 1499730.684 21760 
197.5 164373232.2 1508162.51 21347 
202.5 171845545.2 1572721.476 21637 
207.5 174864052.9 1592344.604 21703 
212.5 177825466.9 1637466.76 21645 
217.5 180586854.3 1650992.059 21660 
222.5 184393384.6 1687987.51 21598 
227.5 190012882.7 1730203.544 21838 
232.5 193851910.4 1764614.552 21812 
237.5 196354662 1771501.291 21801 
242.5 195164829.6 1767017.153 21728 
247.5 196475826.3 1802976.955 21447 
252.5 203255376.7 1839694.167 21772 
257.5 203598129 1846385.51 21487 
262.5 207848347.7 1905295.599 21504 
267.5 209169665.3 1899762.607 21557 
272.5 219997301.2 1979353.055 21907 
277.5 218704038.9 1979415.596 21659 
282.5 220033995.2 2002825.439 21840 
287.5 218599216.4 2000538.197 21299 
292.5 225475986.5 2070542.018 21653 
297.5 229848487.3 2087826.47 21761 
302.5 228121382.8 2067552.264 21490 
307.5 230725499.3 2099651.641 21549 
312.5 234097258.1 2144427.022 21515 
317.5 236959063.6 2142192.981 21520 
322.5 239032514.9 2178171.471 21782 
327.5 242031228.6 2205759.07 21544 
332.5 246517913.7 2227444.407 21756 
337.5 244060468.2 2218610.454 21588 
342.5 245531396.7 2245129.422 21455 
347.5 250978249.3 2279519.547 21770 
352.5 250985360.9 2301670.969 21494 
357.5 253935648.9 2315489.701 21654 
362.5 252209552 2308982.484 21352 
367.5 256125490.8 2329409.823 21657 
372.5 259594306.2 2353783.522 21668 
377.5 264723572.2 2404427.672 21654 
382.5 264660438.6 2411315.749 21666 
387.5 268535124.6 2440193.485 21515 
392.5 272623897.3 2458906.085 21836 
397.5 263684346.9 2423675.991 21388 
402.5 272499824.4 2474108.311 21585 
407.5 274261975.1 2491571.797 21726 
412.5 276244055.7 2501396.995 21944 
417.5 276634418.9 2537357.157 21458 
422.5 275602794.5 2507183.671 21481 
427.5 283858355.5 2567318.811 21798 
432.5 280743192.5 2563727.283 21586 
437.5 284715275.9 2569561.736 21802 
442.5 287446683.6 2615250.399 21695 
447.5 284089790.1 2615509.893 21530 
452.5 288286969.5 2623390.309 21601 
457.5 286814915.7 2609212.841 21814 
462.5 291889937.7 2638118.306 21720 
467.5 289386882.6 2647051.825 21554 
472.5 294917447.5 2672856.442 21821 
477.5 295396174.4 2688567.998 21850 
482.5 294954912.6 2688691.522 21654 
487.5 295340707 2692955.449 21567 
492.5 298154346.7 2699478.472 21580 
497.5 296763158.5 2712472.44 21682 
502.5 301804912.1 2735035.828 21631 
507.5 301490385 2738923.283 21629 
512.5 298860565.9 2733586.491 21545 
517.5 308935909.3 2798571.327 21697 
522.5 305128015.4 2764563.706 21798 
527.5 305091730.1 2782315.079 21693 
532.5 307680957 2813286.053 21668 
537.5 306315524.1 2787694.489 21540 
542.5 306969872.2 2806390.832 21452 
547.5 311776845.8 2839614.48 21738 
552.5 308568107 2829137.174 21527 
557.5 309788512.1 2823067.368 21652 
562.5 305852566.2 2813278.779 21293 
567.5 310546024.1 2849742.378 21573 
572.5 314187735.6 2859050.876 21637 
577.5 313301246.2 2868627.463 21575 
582.5 318294428.4 2875145.194 21797 
587.5 320266292.6 2904331.151 21735 
592.5 316537635.6 2904499.496 21472 
597.5 316986639.2 2899638.33 21499 
602.5 322013086.6 2929625.534 21926 
607.5 315201076.2 2891310.382 21474 
612.5 321927195.2 2935065.542 21688 
617.5 326687787.1 2970357.447 21757 
622.5 328122102 2970985.312 21761 
627.5 329462231.1 2987666.752 21746 
632.5 325167073.5 2974276.742 21752 
637.5 324821191.4 2962317.437 21560 
642.5 328401001.4 2993175.857 21692 
647.5 328394790.2 2975207.673 21726 
652.5 329552335.7 2985756.171 21646 
657.5 325300938.9 2975001.018 21580 
662.5 329535325.2 3015899.845 21510 
667.5 333469434.8 3027930.496 21720 
672.5 330044432.6 3009459.755 21707 
677.5 335341900.2 3043018.125 21886 
682.5 323426184.3 2979881.783 21378 
687.5 334999276.9 3066882.934 21741 
692.5 333472191.5 3054822.77 21564 
697.5 332000510.5 3029993.147 21814 
702.5 332099254.1 3048957.988 21625 
707.5 337801113 3078181.544 21541 
712.5 336080588.1 3069350.474 21565 
717.5 338207364.3 3072737.785 21825 
722.5 331573055.3 3052716.223 21505 
727.5 336501469.5 3079404.587 21505 
732.5 338564617.7 3091962.827 21785 
737.5 333668839.8 3058353.469 21548 
742.5 341486033.5 3095286.504 21805 
747.5 340748283.8 3112430.009 21646 
752.5 340792555.9 3118715.415 21607 
757.5 344697510.1 3134625.73 21866 
762.5 339654068.7 3108719.154 21692 
767.5 338022272.2 3116315.075 21489 
772.5 343928866.2 3139043.188 21582 
777.5 341318332.2 3119887.489 21783 
782.5 345118495 3149450.505 21616 
787.5 343886617.6 3149357.005 21631 
792.5 342698622.6 3145328.782 21430 
797.5 344419162.3 3161095.661 21686 
802.5 343549311.7 3135494.708 21649 
807.5 344896434.1 3147376.861 21786 
812.5 346655353.4 3150180.305 21806 
817.5 348532383.4 3183534.774 21618 
822.5 347340942.1 3169974.051 21615 
827.5 349037232.4 3185833.112 21684 
832.5 346930222.3 3172986.706 21788 
837.5 350314071.4 3197392.857 21889 
842.5 344815224 3177604.485 21422 
847.5 355045983.3 3227210.439 21792 
852.5 344284293.9 3159379.641 21594 
857.5 346261580.6 3176208.746 21579 
862.5 347879218.7 3182965.752 21650 
867.5 349674793.8 3205375.477 21691 
872.5 346116747.7 3185446.534 21594 
877.5 351208853.2 3208456.065 21668 
882.5 345869348.7 3175948.049 21522 
887.5 351096444.4 3208029.197 21488 
892.5 352827827 3223706.988 21756 
897.5 348576091 3198741.507 21780 
902.5 349881976.8 3210679.741 21573 
907.5 356152000.7 3247081.3 21835 
912.5 348502363.3 3191765.452 21496 
917.5 351081674.9 3216106.069 21615 
922.5 350508136.5 3221075.163 21582 
927.5 355212861.2 3249422.151 21789 
932.5 353218228.9 3239223.318 21562 
937.5 350931566.5 3221173.074 21442 
942.5 354885921.4 3245445.563 21783 
947.5 356171563 3248343.284 21708 
952.5 356008563.2 3257543.801 21819 
957.5 354754423.7 3242873.157 21734 
962.5 356580950.8 3259823.275 21760 
967.5 349276615.9 3224803.631 21343 
972.5 352471435.8 3248259.806 21646 
977.5 352438148 3246770.3 21520 
982.5 356330698.5 3247068.682 21731 
987.5 353507892.7 3254411.417 21500 
992.5 361641380.5 3272925.253 21913 
997.5 353466960.2 3255369.414 21675 
1002.5 352713517.6 3250536.277 21603 
1007.5 354606741.1 3251750.285 21618 
1012.5 355145625.3 3260146.322 21673 
1017.5 357544985.1 3278016.229 21525 
1022.5 363153151.9 3290754.291 21910 
1027.5 361183833.5 3290270.804 21828 
1032.5 356149873.5 3261614.961 21575 
1037.5 354552303.5 3255750.253 21549 
1042.5 357240460.2 3271703.566 21714 
1047.5 363597631.3 3308381.016 22038 
1052.5 357352249.1 3263205.027 21689 
1057.5 362011871.1 3312183.687 21723 
1062.5 364572180 3303329.949 21828 
1067.5 359011435.3 3287961.893 21586 
1072.5 360229343.8 3291542.929 21678 
1077.5 362250949.6 3311591.182 21613 
1082.5 363218668.3 3303121.589 21829 
1087.5 356855712.1 3282017.646 21590 
1092.5 356915287.7 3277909.089 21561 
1097.5 366106578.2 3341081.745 21744 
1102.5 362669498.8 3317042.061 21597 
1107.5 359505980.5 3290900.736 21755 
1112.5 359213405.8 3289418.356 21711 
1117.5 367407730 3334861.783 22061 
1122.5 360063430.3 3310721.172 21698 
1127.5 365228767.9 3337181.19 21865 
1132.5 358594053.6 3295750.421 21555 
1137.5 363594091.5 3319187.136 21702 
1142.5 362544464.3 3315452.557 21798 
1147.5 359206945.2 3299440.856 21668 
1152.5 354380545 3274803.194 21459 
1157.5 360286529 3306715.966 21651 
1162.5 359133859 3298401.529 21646 
1167.5 364203478.7 3329163.199 21795 
1172.5 363866077.2 3328825.087 21650 
1177.5 364024654.6 3339333.675 21685 
1182.5 360571172.7 3325870.721 21438 
1187.5 359437739.5 3315298.328 21425 
1192.5 365210655.8 3337008.265 21677 
1197.5 366237031.3 3343347.921 21690 
1202.5 367396919.2 3350147.916 21737 
1207.5 359818414.4 3307899.893 21563 
1212.5 359444815.7 3312061.636 21466 
1217.5 366086123.7 3344227.544 21692 
1222.5 360298849.2 3315984.798 21631 
1227.5 359301151 3312675.376 21454 
1232.5 362110002.7 3336095.445 21638 
1237.5 363934570.5 3340589.168 21656 
1242.5 360547200.8 3327219.494 21656 
1247.5 365160692.9 3349065.57 21731 
1252.5 367227573.6 3364180.486 21580 
1257.5 362405064.3 3331544.832 21492 
1262.5 364465435.9 3329700.865 21935 
1267.5 365248452.9 3332735.982 21619 
1272.5 357775125.6 3312837.88 21322 
1277.5 365712578.8 3348748.514 21694 
1282.5 363295630.3 3331879.439 21743 
1287.5 365224254.7 3333800.275 21623 
1292.5 360546920.5 3328516.517 21466 
1297.5 363171852.9 3330752.553 21561 
1302.5 369578894.5 3363854.909 21937 
1307.5 369465890.4 3374030.812 21768 
1312.5 361217455.1 3323441.371 21597 
1317.5 367957257.6 3354624.423 21737 
1322.5 362982923.4 3342852.953 21615 
1327.5 364698704.2 3346674.064 21766 
1332.5 362589968.6 3329743.848 21587 
1337.5 371982781.7 3389096.202 21863 
1342.5 367117707.4 3358099.915 21858 
1347.5 368055052.2 3354594.858 21738 
1352.5 370202753.3 3382404.665 21827 
1357.5 362953536.5 3335058.085 21685 
1362.5 361711477.6 3337403.076 21465 
1367.5 368288437.1 3377053.965 21497 
1372.5 363808161.9 3349014.575 21546 
1377.5 361400815.4 3327731.613 21719 
1382.5 369273711.7 3371436.35 21734 
1387.5 364021271.6 3351472.454 21496 
1392.5 365853082.4 3349763.679 21656 
1397.5 368828947.1 3380082.343 21831 
1402.5 358726752.4 3314974.598 21454 
1407.5 363719268.4 3355741.589 21389 
1412.5 366253865.1 3361717.324 21707 
1417.5 367701975.8 3366040.684 21834 
1422.5 366449806.4 3351137.817 21723 
1427.5 359907508.5 3325900.551 21482 
1432.5 368943157 3378459.707 21803 
1437.5 366754980.7 3365059.999 21670 
1442.5 361671700.9 3334711.319 21602 
1447.5 365678628.3 3372584.337 21505 
1452.5 362590827.3 3345768.86 21829 
1457.5 369133013.1 3372711.653 21846 
1462.5 367773307.9 3378065.192 21621 
1467.5 369598323.1 3367065.478 21762 
1472.5 364740545.8 3348889.793 21518 
1477.5 368822376.6 3377418.492 21671 
1482.5 363358866.2 3350936.557 21629 
1487.5 373192339 3401257.395 21777 
1492.5 373467534.4 3394112.207 21905 
1497.5 362411047.4 3346801.152 21339 
1502.5 366212668.5 3359264.481 21851 
1507.5 362262202.2 3337586.959 21389 
1512.5 365329321.7 3355545.248 21578 
1517.5 365535108.4 3362495.66 21699 
1522.5 367157597.7 3367408.916 21813 
1527.5 367910261.4 3378551.331 21627 
1532.5 360853598.1 3324887.955 21596 
1537.5 372937620.9 3399791.28 21766 
1542.5 375409108.5 3406408.896 22032 
1547.5 369949660.3 3392031.93 21718 
1552.5 370066432.4 3370676.558 21873 
1557.5 365873907.5 3362157.267 21754 
1562.5 369112589.7 3375408.77 21688 
1567.5 369315339 3381506.993 21671 
1572.5 367103119.1 3373395.477 21549 
1577.5 366101610.7 3357359.14 21661 
1582.5 365894765.7 3364309.447 21516 
1587.5 364384085.7 3351732.882 21599 
1592.5 369413740 3387346.891 21733 
1597.5 366470451.1 3367407.485 21564 
1602.5 364866507 3357422.172 21690 
1607.5 372970748.9 3400399.984 21858 
1612.5 369390106.2 3394596.422 21666 
1617.5 365288878.8 3356370.536 21700 
1622.5 369762422.2 3380798.696 21715 
1627.5 364445809.6 3364262.906 21445 
1632.5 370764451.1 3390905.084 21690 
1637.5 369603724.9 3374360.77 21600 
1642.5 366829366.8 3363386.647 21636 
1647.5 365263054.3 3361377.614 21607 
1652.5 369514671.5 3387943.923 21808 
1657.5 369471279.7 3386254.293 21652 
1662.5 368772393.9 3363077.309 21751 
1667.5 366632787.3 3383609 21444 
1672.5 373588541.8 3402414.039 21750 
1677.5 372149195.7 3410471.27 21865 
1682.5 370195236.6 3388522.745 21781 
1687.5 368870467.4 3378467.615 21693 
1692.5 364587455.7 3361818.236 21655 
1697.5 367067446.9 3365550.775 21655 
1702.5 364889262.6 3363980.974 21485 
1707.5 363500773.7 3351961 21278 
1712.5 367393137.7 3384400.9 21637 
1717.5 366078516 3363405.742 21615 
1722.5 371986991.5 3394305.921 21895 
1727.5 368357512.9 3379406.646 21534 
1732.5 368619373.1 3383040.715 21562 
1737.5 367608397 3385892.66 21579 
1742.5 368923486.8 3366306.716 21785 
1747.5 367507070 3376665.037 21622 
1752.5 370134887.5 3388076.943 21702 
1757.5 373983187.8 3413094.517 21897 
1762.5 367810403 3364468.893 21671 
1767.5 364277622.3 3364352.164 21520 
1772.5 363358407.5 3345019.444 21379 
1777.5 369748742.4 3387687.541 21718 
1782.5 363913051.3 3347691.865 21642 
1787.5 366002401.5 3364527.54 21477 
1792.5 372620435.5 3402120.276 21698 
1797.5 370405398.6 3391688.792 21751 
1802.5 373601292.2 3393143.181 21835 
1807.5 367767221.5 3379953.118 21684 
1812.5 360982613.5 3333721.147 21599 
1817.5 368168905 3379221.788 21724 
1822.5 373875177.1 3404313.347 21764 
1827.5 367478169.9 3377775.947 21595 
1832.5 364293803.8 3356976.278 21715 
1837.5 372186281.9 3395554.846 21820 
1842.5 365990484.2 3357800.937 21543 
1847.5 368094029 3377590.984 21693 
1852.5 368055471.3 3379599.353 21756 
1857.5 364015824.1 3348297.009 21418 
1862.5 373323699.3 3398719.77 21833 
1867.5 363096043.2 3354673.536 21558 
1872.5 370265043.9 3391792.353 21859 
1877.5 373876785.5 3406573.019 21774 
1882.5 367786703.3 3373687.159 21568 
1887.5 373542516.1 3401360.383 21818 
1892.5 363899003.2 3360137.239 21501 
1897.5 371117793.8 3384666.793 21952 
1902.5 365445063.9 3364232.123 21577 
1907.5 365953891 3362849.811 21699 
1912.5 367394693.3 3364867.143 21738 
1917.5 370244332.4 3391993.455 21739 
1922.5 365127066 3353224.344 21579 
1927.5 371416353.3 3396824.269 21744 
1932.5 369936181.5 3397558.993 21645 
1937.5 374261504.6 3412469.453 21797 
1942.5 368411825.5 3394658.289 21536 
1947.5 371942933.7 3412262.061 21667 
1952.5 369984230.7 3381133.604 21866 
1957.5 370635261.1 3390403.884 21752 
1962.5 375220060.5 3417316.06 21720 
1967.5 374574112.2 3399609.048 21831 
1972.5 367531205 3382022.623 21615 
1977.5 367755646.5 3379411.587 21647 
1982.5 367306907.5 3380609.477 21581 
1987.5 372637494.7 3398140.904 21785 
1992.5 365616460 3365705.505 21780 
1997.5 373371770.3 3412154.884 21800 
2002.5 364703126.1 3370461.969 21520 
2007.5 373631318.7 3407639.563 21886 
2012.5 367003946.3 3371996.113 21579 
2017.5 371621324.2 3437804.665 22337 
2022.5 374018888.6 3611591.327 26865 
2027.5 368669915.4 3717630.312 29037 
2032.5 354332059.7 3700007.493 29996 
2037.5 353106472.6 3726103.956 29203 
2042.5 344660677.7 3676940.86 27758 
2047.5 336993227.6 3634333.248 26643 
2052.5 333165116.6 3640990.874 25730 
2057.5 328827032.3 3597360.594 24751 
2062.5 323506927.2 3591720.054 23906 
2067.5 311048204.8 3495838.6 22795 
2072.5 309472748 3543202.55 21834 
2077.5 302501685.9 3485651.98 21081 
2082.5 301324902.7 3461052.844 20355 
2087.5 291576266 3423761.013 19586 
2092.5 289281226.5 3409780.254 18733 
2097.5 282325452.9 3380844.439 18128 
2102.5 278929986.8 3375000.815 17288 
2107.5 269081756.9 3297993.079 16614 
2112.5 259610620.4 3233280.669 15896 
2117.5 263463382.3 3268611.96 15656 
2122.5 260549755.3 3226819.617 15040 
2127.5 250857552.3 3182970.619 14497 
2132.5 245240703 3167712.104 13839 
2137.5 240355650.3 3128369.38 13341 
2142.5 237734827.3 3102643.286 12940 
2147.5 225714587.5 3063017.254 12214 
2152.5 227035126.6 3051466.467 11786 
2157.5 224254661.7 3031364.833 11671 
2162.5 220264171.6 3014394.243 11239 
2167.5 214290559.9 2948382.766 10906 
2172.5 209580688.2 2941616.672 10381 
2177.5 200956292.3 2883386.89 9920 
2182.5 204976227.9 2913929.42 9769 
2187.5 198303328.9 2857672.788 9390 
2192.5 199341990.5 2881014.722 9194 
2197.5 189999793.5 2809629.118 8785 
2202.5 189807496.4 2813714.382 8647 
2207.5 190318101.3 2800408.147 8363 
2212.5 181412866.1 2747765.397 7888 
2217.5 176460923.6 2696645.785 7674 
2222.5 176076991.1 2711367.819 7438 
2227.5 178196642.8 2735956.533 7367 
2232.5 167999869.2 2630873.558 7071 
2237.5 166218575.1 2612199.307 6875 
2242.5 163170324.6 2614936.05 6549 
2247.5 153918505.8 2515695.073 6235 
2252.5 158256941.6 2594568.142 6268 
2257.5 154266927.7 2569115.135 5993 
2262.5 154997923.6 2570468.135 5846 
2267.5 151215171.6 2525303.38 5682 
2272.5 145977403.8 2468484.389 5526 
2277.5 141737463.9 2442289.493 5301 
2282.5 139227538.6 2404481.941 5183 
2287.5 137927477.5 2396409.317 5066 
2292.5 131593849.8 2343446.874 4799 
2297.5 134765589.8 2381601.185 4864 
2302.5 134446027.9 2374371.273 4714 
2307.5 125648735.6 2306081.497 4390 
2312.5 126616437.4 2323904.169 4326 
2317.5 125240691.2 2298175.186 4265 
2322.5 118079709.7 2222495.203 4089 
2327.5 120686829.2 2275498.708 3991 
2332.5 115280717.4 2207104.611 3902 
2337.5 117916313.9 2249940.643 3880 
2342.5 112486844.5 2187867.615 3667 
2347.5 112926793.9 2182799.567 3608 
2352.5 109337077.3 2162968.507 3481 
2357.5 111116943.5 2171341.926 3482 
2362.5 104564986.2 2110604.066 3340 
2367.5 108372637.1 2176020.693 3369 
2372.5 100518080.7 2044511.437 3212 
2377.5 99602677.73 2040807.369 3088 
2382.5 100991255.9 2082646.754 3070 
2387.5 95409940.29 2022573.654 2887 
2392.5 93358802.58 2000642.08 2864 
2397.5 93703181.93 1993951.301 2825 
2402.5 92594612.03 1961626.401 2818 
2407.5 91178282.96 1994321.711 2704 
2412.5 85623225.02 1916111.857 2587 
2417.5 87795491.47 1923372.533 2637 
2422.5 85650567.34 1940888.537 2475 
2427.5 82667509.42 1865690.449 2387 
2432.5 85513686.62 1913886.965 2460 
2437.5 83019961.24 1896938.204 2388 
2442.5 83262551.13 1921499.509 2370 
2447.5 80115231.22 1869323.007 2261 
2452.5 78113453.7 1841128.261 2220 
2457.5 76362904.37 1805679.185 2162 
2462.5 76061898.89 1808455.929 2135 
2467.5 75606127.75 1800887.063 2107 
2472.5 69627188.61 1747918.024 1973 
2477.5 74948174.99 1812813.079 2062 
2482.5 71691420.28 1746073.637 1961 
2487.5 68627631.3 1730718.964 1890 
2492.5 65533054.78 1706519.265 1796 
2497.5 68355048.36 1710188.13 1898 
2502.5 64868052.62 1627352.54 1769 
2507.5 64359232.99 1639176.886 1770 
2512.5 60169030.08 1599043.776 1633 
2517.5 61461262.3 1629241.644 1667 
2522.5 59970493.5 1601400.428 1622 
2527.5 61081151.87 1619574.386 1630 
2532.5 59153239.76 1590922.12 1587 
2537.5 57334100.91 1580856.593 1518 
2542.5 57210699.51 1583205.266 1513 
2547.5 56031001.61 1561137.637 1482 
2552.5 54557723.37 1548783.728 1442 
2557.5 51486028.65 1495517.839 1376 
2562.5 52528027.33 1493941.118 1395 
2567.5 54030878.59 1536904.99 1419 
2572.5 51667226.69 1485628.996 1349 
2577.5 53747384.47 1524729.018 1397 
2582.5 47173057.95 1434675.025 1225 
2587.5 49427759.63 1475727.125 1283 
2592.5 49873102.17 1495832.836 1271 
2597.5 48564837.01 1480926.12 1230 
2602.5 44912403.47 1419998.744 1153 
2607.5 43352447.52 1389720.424 1128 
2612.5 45090433.25 1411986.231 1157 
2617.5 43268231.79 1380342.117 1105 
2622.5 39688073.87 1309250.476 1028 
2627.5 42889906.61 1392763.93 1064 
2632.5 42164078.68 1360152.946 1065 
2637.5 41177207.13 1349392.988 1040 
2642.5 40635696.31 1340870.435 1033 
2647.5 37636263.68 1258888.539 967 
2652.5 37968251.2 1316053.658 935 
2657.5 38963503.36 1327760.538 964 
2662.5 36969555.93 1279354.721 931 
2667.5 34051188.98 1208144.124 868 
2672.5 35273901.19 1235107.886 897 
2677.5 34525108.5 1247762.109 855 
2682.5 33109405.98 1202607.332 834 
2687.5 32396734.65 1214508.092 805 
2692.5 33207137.49 1187342.211 828 
2697.5 35561566.94 1233769.599 892 
2702.5 33360372.36 1215597.867 831 
2707.5 32146997.89 1179433.894 796 
2712.5 31901845.65 1184287.968 796 
2717.5 30698106.72 1153921.053 765 
2722.5 30283385.51 1151741.514 752 
2727.5 30509854.66 1152286.592 753 
2732.5 30473362.98 1172788.292 738 
2737.5 29958058.78 1160549.714 743 
2742.5 28708001.29 1146640.181 701 
2747.5 28033142.91 1150431.038 681 
2752.5 27308593.71 1125919.022 663 
2757.5 26380891.09 1082002.707 651 
2762.5 25566948.57 1046625.259 632 
2767.5 25462659.96 1035688.362 634 
2772.5 25047639.36 1036792.174 629 
2777.5 24051028.35 1001619.266 595 
2782.5 26864496.85 1078805.282 665 
2787.5 25257496.82 1080115.624 616 
2792.5 23818862.72 1004687.219 595 
2797.5 22369075.26 996790.4275 549 
2802.5 21641004.61 982370.8299 526 
2807.5 23756084.21 1056831.617 569 
2812.5 21499911.99 947687.1597 534 
2817.5 22659799.3 982118.5452 557 
2822.5 21463767.86 969017.9637 524 
2827.5 22423345.49 1008280.76 541 
2832.5 20801606.89 974880.221 507 
2837.5 18618696.32 905665.0007 453 
2842.5 19179479.55 890683.4794 481 
2847.5 18702769.97 896993.3952 463 
2852.5 19886444.43 949234.6635 482 
2857.5 19617259 940121.1287 475 
2862.5 17924050.72 894939.4616 433 
2867.5 19387550.34 927658.2236 469 
2872.5 18522980.64 916583.2428 449 
2877.5 18508219.84 919426.2908 443 
2882.5 17931109.26 891300.7368 436 
2887.5 17693497.89 899832.8137 428 
2892.5 17274657.24 902928.71 413 
2897.5 16876338.28 868064.7703 405 
2902.5 15948103.56 856093.3817 385 
2907.5 14629722.77 779448.857 365 
2912.5 14852174.74 835160.0686 353 
2917.5 16465844.27 873155.816 394 
2922.5 16718031.29 867496.7088 400 
2927.5 15232027.48 793638.9098 381 
2932.5 13566642.29 771652.2649 331 
2937.5 13428552.85 790361.2456 319 
2942.5 14509308.72 832369.7069 346 
2947.5 14504845.14 812816.0193 350 
2952.5 13828386.24 796484.0753 333 
2957.5 11685170.68 719411.8836 281 
2962.5 13593754.65 803612.2551 321 
2967.5 13584381.83 768930.9357 330 
2972.5 11953109.19 732010.523 288 
2977.5 12545560.53 746216.9817 304 
2982.5 11892431.89 742722.9077 284 
2987.5 13145120.22 793764.6853 309 
2992.5 11624588.06 729938.3981 278 
2997.5 12154919.68 733331.7844 295 
3002.5 11191694.33 707575.2241 268 
3007.5 12024600.02 741202.3951 291 
3012.5 11190557.65 691922.1162 273 
3017.5 10697644.5 693853.7102 258 
3022.5 11504925.13 717884.3837 278 
3027.5 11087341.08 690370.3048 269 
3032.5 9528632.752 656447.0513 230 
3037.5 10604971.78 691445.2901 254 
3042.5 10301012.94 698059.4242 246 
3047.5 8776175.161 627320.357 211 
3052.5 8845336.492 646374.9581 209 
3057.5 8931500.436 612570.4977 221 
3062.5 11576268.06 790462.0083 260 
3067.5 9094295.685 638151.6328 219 
3072.5 8449975.555 594888.9374 208 
3077.5 8589766.63 604011.77 209 
3082.5 8985492.76 673024.1331 207 
3087.5 7945030.074 566441.3352 197 
3092.5 7427690.372 575894.3017 179 
3097.5 9025044.019 677124.5271 209 
3102.5 8275909.769 618212.998 197 
3107.5 7791133.405 562616.5742 192 
3112.5 7350198.817 568231.9866 178 
3117.5 6749368.653 550064.2237 162 
3122.5 6825538.516 551893.2194 166 
3127.5 7010982.81 586142.3362 163 
3132.5 7167173.475 599171.6149 165 
3137.5 6578377.163 531376.7233 160 
3142.5 6619913.45 547139.2548 158 
3147.5 5789847.58 484413.3453 144 
3152.5 6681035.582 544615.1661 160 
3157.5 7257639.435 566669.791 175 
3162.5 6824616.392 562181.7734 162 
3167.5 5712843.264 495457.2883 139 
3172.5 7182421.963 625458.198 160 
3177.5 6952370.826 574787.1433 164 
3182.5 5947008.759 519873.2657 142 
3187.5 5716208.099 511483.7237 136 
3192.5 6684666.195 520713.5694 165 
3197.5 5056055.272 471766.9198 122 
3202.5 6462663.41 543688.4009 154 
3207.5 5304006.117 463718.6486 131 
3212.5 6939568.65 570058.1063 164 
3217.5 5633482.78 509452.2857 134 
3222.5 5436807.74 486849.8341 132 
3227.5 5135667.099 473105.8728 125 
3232.5 4671183.407 508056.9453 104 
3237.5 4180304.21 426960.2092 101 
3242.5 5063628.512 466480.8824 123 
3247.5 4837331.558 514034.0566 108 
3252.5 5496173.775 487689.9196 134 
3257.5 4369979.321 436789.4103 105 
3262.5 4264503.586 431898.8755 103 
3267.5 4743791.894 471901.5642 112 
3272.5 4376049.463 468816.9863 101 
3277.5 4317129.264 458350.0623 101 
3282.5 4678910.988 488039.3763 108 
3287.5 4222270.905 454741.1704 99 
3292.5 4327446.867 435999.2975 104 
3297.5 4217926.864 433845.2799 103 
3302.5 4900321.418 513043.4382 110 
3307.5 4290635.455 451920.3615 101 
3312.5 3414671.838 389501.2447 82 
3317.5 3917728.419 463882.0626 87 
3322.5 3629621.983 405177.5517 87 
3327.5 3032138.105 350330.1824 75 
3332.5 3704209.102 439597.472 84 
3337.5 3966807.575 456304.4992 90 
3342.5 3232204.306 399134.6165 75 
3347.5 3555686.477 401264.191 85 
3352.5 3675619.773 422627.0648 86 
3357.5 3409684.184 388924.7637 82 
3362.5 3746424.467 390849.0934 92 
3367.5 3320097.33 403766.3182 77 
3372.5 3300769.101 407427.4748 76 
3377.5 3390638.276 370203.1549 84 
3382.5 3017741.605 391427.1153 69 
3387.5 3171713.468 415739.1989 71 
3392.5 2989008.387 347722.561 74 
3397.5 2496541.714 339270.0544 59 
3402.5 3235214.656 424147.509 72 
3407.5 2745777.046 333224.22 68 
3412.5 3143909.926 395563.4052 73 
3417.5 2578324.572 403250.0932 54 
3422.5 3262385.334 362742.4306 81 
3427.5 2307935.452 305894.9905 57 
3432.5 2881421.28 362753.0646 69 
3437.5 2097659.292 291113.2299 52 
3442.5 2824735.272 337805.5353 70 
3447.5 2664057.76 352024.96 63 
3452.5 2351747.246 354968.4871 53 
3457.5 3109526.412 378253.1046 74 
3462.5 1551160.599 251804.1626 38 
3467.5 2580556.67 373193.5455 58 
3472.5 2177651.192 296534.1714 54 
3477.5 2269854.628 303514.8248 56 
3482.5 1975599.511 282400.6741 49 
3487.5 1940774.245 280343.622 48 
3492.5 2221750.382 299769.1307 55 
3497.5 2536086.461 384737.4807 55 
3502.5 3098037.338 412730.6571 69 
3507.5 1619461.289 256221.0179 40 
3512.5 2344024.334 336628.9444 55 
3517.5 2205925.434 300326.378 54 
3522.5 1776314.024 267920.5373 44 
3527.5 2344829.989 336872.3808 56 
3532.5 1826436.164 272420.2715 45 
3537.5 1659266.371 259288.5082 41 
3542.5 2492626.881 395680.6366 52 
3547.5 1666619.199 260443.8426 41 
3552.5 1542660.49 250426.4613 38 
3557.5 1933254.156 279222.2543 48 
3562.5 1656572.982 258865.2378 41 
3567.5 1531221.915 283800.051 35 
3572.5 1254357.663 225418.3138 31 
3577.5 1666693.414 260480.5287 41 
3582.5 1849300.337 302372.2677 43 
3587.5 1357019.077 262637.4288 31 
3592.5 1825760.353 323378.3529 40 
3597.5 1492094.727 245451.2672 37 
3602.5 1369507.209 235024.137 34 
3607.5 1367031.412 234582.434 34 
3612.5 1543490.226 286944.2219 35 
3617.5 1074626.27 206959.7134 27 
3622.5 1585280.134 306652.3037 34 
3627.5 1094918.697 210843.0878 27 
3632.5 850174.8441 185656.6465 21 
3637.5 1216786.118 222283.744 30 
3642.5 1330933.408 285790.8757 28 
3647.5 1884239.511 371301.456 36 
3652.5 1379926.219 236836.2938 34 
3657.5 722628.1458 170411.4102 18 
3662.5 1408472.599 297136.3738 30 
3667.5 1203370.073 282348.6864 25 
3672.5 1294398.491 228976.7899 32 
3677.5 987922.651 237975.1171 22 
3682.5 1248146.242 258066.4884 28 
3687.5 1162720.485 215995.4874 29 
3692.5 1096529.743 211171.6816 27 
3697.5 1102301.013 239422.0927 25 
3702.5 1273360.083 254674.6235 29 
3707.5 822642.5721 184049.6617 20 
3712.5 685425.5417 166366.7601 17 
3717.5 1487077.501 273706.9293 34 
3722.5 933474.9064 238226.8311 20 
3727.5 693572.7023 168320.383 17 
3732.5 924866.3896 257087.4136 18 
3737.5 1154945.581 269971.0643 24 
3742.5 999913.5451 238232.3444 22 
3747.5 696383.3237 169024.0854 17 
3752.5 978444.9461 199842.639 24 
3757.5 840084.4789 183423.3894 21 
3762.5 1183534.419 247237.648 27 
3767.5 576200.026 190530.5843 12 
3772.5 603613.4277 155932.5504 15 
3777.5 654169.1512 163611.317 16 
3782.5 683417.7811 165838.399 17 
3787.5 941690.75 228192.6252 21 
3792.5 771929.9533 177210.7866 19 
3797.5 603289.6019 155847.0407 15 
3802.5 854425.0964 186580.425 21 
3807.5 569417.3345 152259.8118 14 
3812.5 1107108.35 275414.2188 22 
3817.5 838162.345 182996.3344 21 
3822.5 570202.8084 152509.9983 14 
3827.5 1132295.072 249475.7737 25 
3832.5 730870.6309 244264.3797 13 
3837.5 240179.5987 98126.37229 6 
3842.5 687026.7686 166723.4145 17 
3847.5 674979.5006 209046.0844 14 
3852.5 580116.4384 193323.9536 12 
3857.5 525812.4019 145928.5759 13 
3862.5 449580.6281 135647.5976 11 
3867.5 159624.691 79840.8935 4 
3872.5 786393.3048 213668.6254 17 
3877.5 600085.0988 203554.4487 12 
3882.5 536090.9572 234433.7089 8 
3887.5 683400.5972 210513.0022 14 
3892.5 481174.5282 138937.5092 12 
3897.5 567678.9584 151859.9867 14 
3902.5 731033.4205 172398.3048 18 
3907.5 320995.7768 113565.5666 8 
3912.5 484711.7122 140049.5684 12 
3917.5 318409.537 112655.2393 8 
3922.5 522911.0553 145163.8096 13 
3927.5 605750.2574 156526.422 15 
3932.5 708140.7108 209794.2253 15 
3937.5 401207.9585 126989.5287 10 
3942.5 389036.7857 184284.612 7 
3947.5 120619.7233 69651.87954 3 
3952.5 394593.8844 124877.257 10 
3957.5 204290.9086 91447.92683 5 
3962.5 362568.3746 120957.0276 9 
3967.5 626152.9952 201203.6327 13 
3972.5 435795.2074 131483.2507 11 
3977.5 604967.598 156316.259 15 
3982.5 550565.0844 200809.0903 11 
3987.5 241868.4374 98769.72059 6 
3992.5 515585.3013 143110.0145 13 
3997.5 159172.2765 79614.41266 4 
4002.5 401182.6484 126961.4081 10 
4007.5 407840.0332 129038.1146 10 
4012.5 479555.4847 196333.6246 9 
4017.5 352717.8434 179307.8417 6 
4022.5 78162.73304 55291.41197 2 
4027.5 116854.6302 67466.27101 3 
4032.5 408128.918 129180.8507 10 
4037.5 514857.9135 197813.5732 10 
4042.5 317729.1396 112373.3875 8 
4047.5 242523.934 99103.11267 6 
4052.5 465309.3413 187912.7591 9 
4057.5 163858.9432 81996.28942 4 
4062.5 394100.5372 124683.9326 10 
4067.5 122768.6051 70912.67256 3 
4072.5 195813.8019 87617.16129 5 
4077.5 163875.7818 82047.64206 4 
4082.5 456997.5852 180633.4501 9 
4087.5 347523.9139 176463.5949 6 
4092.5 122847.7562 70990.57439 3 
4097.5 280877.1278 106222.3382 7 
4102.5 556494.7809 199240.7415 11 
4107.5 324289.4518 114739.0544 8 
4112.5 254636.0706 157154.5225 4 
4117.5 481557.0553 197543.1878 9 
4122.5 82510.98898 58388.58359 2 
4127.5 122923.9927 71069.22635 3 
4132.5 438483.5446 132273.6567 11 
4137.5 537667.5531 235061.0561 8 
4142.5 163387.9521 81749.86361 4 
4147.5 204796.2354 91588.71465 5 
4152.5 324005.0889 114607.7693 8 
4157.5 38937.00164 38937.00164 1 
4162.5 164531.7951 82327.44676 4 
4167.5 363230.2772 121132.5674 9 
4172.5 203962.247 91244.74888 5 
4177.5 0 0 0 
4182.5 122842.5976 70926.08626 3 
4187.5 356860.587 187123.81 6 
4192.5 397722.5304 190554.5939 7 
4197.5 203491.7301 91033.945 5 
4202.5 281230.6097 106388.4693 7 
4207.5 226903.5033 165313.4545 3 
4212.5 327609.2651 115973.1814 8 
4217.5 116880.8685 67506.83097 3 
4222.5 162889.2799 81480.93336 4 
4227.5 40796.77882 40796.77882 1 
4232.5 116731.358 67423.56944 3 
4237.5 79754.82443 56395.31085 2 
4242.5 160368.7665 80243.29318 4 
4247.5 0 0 0 
4252.5 118113.2198 68201.16436 3 
4257.5 275709.2993 178119.3907 4 
4262.5 122986.662 71064.28149 3 
4267.5 84642.99396 59852.29881 2 
4272.5 39455.93816 39455.93816 1 
4277.5 243462.6284 99403.33719 6 
4282.5 164200.8428 82137.9733 4 
4287.5 121191.749 69994.63398 3 
4292.5 41139.91636 41139.91636 1 
4297.5 205878.6188 92101.16713 5 
4302.5 199848.0334 89472.02598 5 
4307.5 279186.3657 105569.8532 7 
4312.5 39151.9131 39151.9131 1 
4317.5 131218.0324 131218.0324 1 
4322.5 162963.3108 81504.37384 4 
4327.5 162490.0454 81325.65258 4 
4332.5 80542.30208 57047.74674 2 
4337.5 206674.793 92458.66597 5 
4342.5 159381.2431 79765.30806 4 
4347.5 157848.9108 78976.17149 4 
4352.5 38142.30631 38142.30631 1 
4357.5 163672.0342 81894.5896 4 
4362.5 204795.1187 91644.48209 5 
4367.5 120997.4605 69900.507 3 
4372.5 83219.13532 58849.20938 2 
4377.5 77972.58303 55142.98856 2 
4382.5 41467.53641 41467.53641 1 
4387.5 158035.781 79045.50865 4 
4392.5 82297.97907 58270.19764 2 
4397.5 78341.92222 55428.04984 2 
4402.5 83015.10599 58705.07745 2 
4407.5 120905.4143 69878.58303 3 
4412.5 258135.7503 165719.29 4 
4417.5 42345.75928 42345.75928 1 
4422.5 39585.47821 39585.47821 1 
4427.5 121464.8355 70191.29416 3 
4432.5 81499.95604 57799.45239 2 
4437.5 79794.08738 56546.98433 2 
4442.5 40273.17018 40273.17018 1 
4447.5 0 0 0 
4452.5 42854.81967 42854.81967 1 
4457.5 42057.74436 42057.74436 1 
4462.5 0 0 0 
4467.5 0 0 0 
4472.5 0 0 0 
4477.5 40847.46247 40847.46247 1 
4482.5 120691.1608 69774.93623 3 
4487.5 39862.81468 39862.81468 1 
4492.5 0 0 0 
4497.5 80786.35442 57134.79332 2 
4502.5 122564.6907 70836.13134 3 
4507.5 124973.5804 72229.81801 3 
4512.5 0 0 0 
4517.5 302755.6458 170864.9733 5 
4522.5 82846.91725 58639.93667 2 
4527.5 39553.25743 39553.25743 1 
4532.5 39293.03868 39293.03868 1 
4537.5 0 0 0 
4542.5 118592.0756 68472.06584 3 
4547.5 78824.64134 55739.75594 2 
4552.5 0 0 0 
4557.5 0 0 0 
4562.5 139162.3551 139162.3551 1 
4567.5 42848.30532 42848.30532 1 
4572.5 76442.48036 54054.86146 2 
4577.5 120951.9322 69899.41226 3 
4582.5 41836.76859 41836.76859 1 
4587.5 42431.48413 42431.48413 1 
4592.5 79776.83518 56424.6695 2 
4597.5 81576.8534 57801.95198 2 
4602.5 0 0 0 
4607.5 40361.34624 40361.34624 1 
4612.5 120834.4405 69772.76895 3 
4617.5 81594.20171 57700.93982 2 
4622.5 41330.34202 41330.34202 1 
4627.5 84685.78531 59887.29125 2 
4632.5 123377.5792 71256.36099 3 
4637.5 39571.52016 39571.52016 1 
4642.5 117663.8845 67958.64667 3 
4647.5 39078.77443 39078.77443 1 
4652.5 0 0 0 
4657.5 0 0 0 
4662.5 38202.58955 38202.58955 1 
4667.5 0 0 0 
4672.5 39791.27599 39791.27599 1 
4677.5 81154.69214 57385.44723 2 
4682.5 0 0 0 
4687.5 0 0 0 
4692.5 117913.8717 68095.90724 3 
4697.5 0 0 0 
4702.5 0 0 0 
4707.5 0 0 0 
4712.5 0 0 0 
4717.5 0 0 0 
4722.5 0 0 0 
4727.5 38884.71406 38884.71406 1 
4732.5 38528.7739 38528.7739 1 
4737.5 0 0 0 
4742.5 0 0 0 
4747.5 81654.54602 57763.62083 2 
4752.5 0 0 0 
4757.5 0 0 0 
4762.5 0 0 0 
4767.5 41644.53574 41644.53574 1 
4772.5 0 0 0 
4777.5 0 0 0 
4782.5 38445.74798 38445.74798 1 
4787.5 0 0 0 
4792.5 0 0 0 
4797.5 39837.40033 39837.40033 1 
4802.5 0 0 0 
4807.5 0 0 0 
4812.5 41116.63015 41116.63015 1 
4817.5 0 0 0 
4822.5 0 0 0 
4827.5 42293.17994 42293.17994 1 
4832.5 143051.4691 143051.4691 1 
4837.5 0 0 0 
4842.5 42706.53949 42706.53949 1 
4847.5 0 0 0 
4852.5 0 0 0 
4857.5 0 0 0 
4862.5 0 0 0 
4867.5 0 0 0 
4872.5 0 0 0 
4877.5 0 0 0 
4882.5 0 0 0 
4887.5 0 0 0 
4892.5 41732.34805 41732.34805 1 
4897.5 0 0 0 
4902.5 0 0 0 
4907.5 0 0 0 
4912.5 0 0 0 
4917.5 0 0 0 
4922.5 0 0 0 
4927.5 148389.8363 148389.8363 1 
4932.5 40271.0219 40271.0219 1 
4937.5 0 0 0 
4942.5 0 0 0 
4947.5 0 0 0 
4952.5 0 0 0 
4957.5 0 0 0 
4962.5 0 0 0 
4967.5 0 0 0 
4972.5 38520.94036 38520.94036 1 
4977.5 0 0 0 
4982.5 0 0 0 
4987.5 0 0 0 
4992.5 0 0 0 
4997.5 0 0 0 
