# Format: McCode with text headers
# URL: http://www.mccode.org
# Creator: McStas 2.5 - Feb. 26, 2020
# Instrument: /zhome/89/0/38697/once/McStas-2.5_CPU_MPICC/ESS_IN5_reprate/ESS_IN5_reprate.instr
# Ncount: 2500000
# Trace: no
# Gravitation: no
# Seed: 1582957293
# Directory: 1
# Nodes: 4
# Param: Lmin=4.9
# Param: Lmax=5.1
# Param: lambda0=5
# Param: Pulse_width=0.002
# Param: Num_pulses=1
# Param: GUI_start=2
# Param: FO1_DIST=6
# Param: L_ballistic_begin=19.5
# Param: L_ballistic_end=17
# Param: Length=100
# Param: SAMPLE_DIST=1.2
# Param: DETECTOR_DIST=4
# Param: GUI_h=0.105
# Param: GUI_w=0.1
# Param: GUI_GAP=0.05
# Param: H1=0.167
# Param: W1=0.116
# Param: H2=0.185
# Param: W2=0.15
# Param: H3=0.19
# Param: W3=0.15
# Param: H4=0.213
# Param: W4=0.14
# Param: H_chop=0.075
# Param: W_chop=0.03
# Param: H_end=0.042
# Param: W_end=0.0215
# Param: ALPHA=3.4
# Param: M=3.5
# Param: F_slow1=16.6667
# Param: F_slow2=0
# Param: F_fast1=0
# Param: F_fast2=200
# Param: N_fast=1
# Param: SLOW1_THETA=120
# Param: FO3=1
# Param: THETA_fast1=180
# Param: FAST_THETA=5
# Param: Gamma=0
# Param: Etun=1
# Param: V_HOLE=0
# Param: FRAC_QUASIEL=0
# Param: FRAC_TUNNEL=0
# Param: TT=50
# Param: RES_DE=0.5
# Param: port=30
# Param: cold=0.95
# Date: Wed Feb 26 19:30:08 2020 (1582741808)
# type: array_1d(1000)
# Source: ESS_IN5_reprate (/zhome/89/0/38697/once/McStas-2.5_CPU_MPICC/ESS_IN5_reprate/ESS_IN5_reprate.instr)
# component: TOFmoderator_zoom
# position: 0 0 1e-06
# title: Time-of-flight monitor
# Ncount: 10000000
# filename: TOFmoderator_zoom.dat
# statistics: X0=1305.45; dX=639.913;
# signal: Min=0; Max=3.76156e+08; Mean=1.46582e+08;
# values: 1.46582e+11 6.65646e+07 9.62711e+06
# xvar: t
# yvar: (I,I_err)
# xlabel: Time-of-flight [\gms]
# ylabel: Intensity
# xlimits: 0 5000
# variables: t I I_err N
2.5 91.4150716 76.31862894 14 
7.5 27268.45444 7878.297496 74 
12.5 130460.797 28670.86724 97 
17.5 149579.3427 31881.70229 964 
22.5 548247.005 61936.34974 10389 
27.5 1794965.479 89334.35823 16330 
32.5 4280527.423 117471.4952 20967 
37.5 8167563.626 168624.7083 21726 
42.5 12410671.19 203553.1264 21526 
47.5 17574322.71 228091.1501 21734 
52.5 23301290.77 286360.433 21830 
57.5 28769231.27 316679.8768 21753 
62.5 35540466.46 420597.139 21636 
67.5 40598874.83 438154.6479 21713 
72.5 46749357.19 486902.6058 21692 
77.5 53497949.34 572372.3269 21601 
82.5 58778935.27 593404.4615 21533 
87.5 64427306.91 653003.0988 21696 
92.5 71282523.63 722259.6989 21658 
97.5 76870227.41 763538.3998 21949 
102.5 81740427.2 789935.137 21714 
107.5 87412320.32 865087.4114 21742 
112.5 89809492.41 858479.7726 21373 
117.5 97689077.61 919481.5448 21943 
122.5 102851875.9 970238.6915 21720 
127.5 109086776.5 1035370.372 21671 
132.5 112232694.3 1043467.369 21813 
137.5 117415067.4 1092145.748 21786 
142.5 121215213.7 1145924.602 21627 
147.5 125656166.2 1180957.838 21642 
152.5 132627964.5 1252186.526 21798 
157.5 133832132.4 1234277.509 21603 
162.5 140651807 1312510.639 21645 
167.5 145054121.8 1339365.393 21690 
172.5 149594712.2 1380296.743 21796 
177.5 151881976.4 1419582.248 21587 
182.5 154369593.9 1420866.728 21479 
187.5 160406866.3 1479412.988 21705 
192.5 163816225.3 1528076.028 21598 
197.5 167684664.5 1537675.993 21728 
202.5 168727534.7 1548129.058 21612 
207.5 174726013.7 1610104.96 21656 
212.5 177734375.9 1607198.978 21632 
217.5 181468569.2 1658392.19 21676 
222.5 186533569.6 1712054.382 21851 
227.5 189608227.3 1743680.037 21796 
232.5 191223304.9 1748485.198 21552 
237.5 192577537 1750324.287 21629 
242.5 197991562.2 1816471.776 21761 
247.5 200084564.2 1815484.876 21549 
252.5 203376613.6 1858824.808 21492 
257.5 205086225.4 1892803.208 21343 
262.5 211875318 1910037.951 21841 
267.5 213539122.8 1937084.367 21632 
272.5 218648342 1978012.085 21996 
277.5 216847898.3 1975286.123 21544 
282.5 221907634.2 2020443.95 21777 
287.5 219428029.9 1999627.078 21463 
292.5 227008207.8 2070006.077 21555 
297.5 227821091.9 2071909.262 21577 
302.5 230851575.5 2079219.759 21870 
307.5 230864082.4 2112534.007 21514 
312.5 235312429.3 2119956.049 21733 
317.5 241789606.8 2176599.854 21818 
322.5 240483819.5 2180921.888 21653 
327.5 241577250.4 2191058.283 21584 
332.5 244561624.9 2228848.218 21556 
337.5 246844332.5 2239649.457 21653 
342.5 248319132.1 2252576.822 21643 
347.5 250050417.8 2269555.366 21525 
352.5 249140430.7 2278641.271 21503 
357.5 254010901.1 2314267.04 21628 
362.5 255873501.3 2335379.827 21605 
367.5 261201954.8 2371739.687 21763 
372.5 262020577.2 2368399.039 21616 
377.5 258894853.7 2355617.419 21539 
382.5 259007273 2356446.448 21426 
387.5 265106612.9 2420684.936 21656 
392.5 266746044.1 2434975.994 21638 
397.5 268369924.1 2439694.182 21630 
402.5 271032520.1 2459964.399 21648 
407.5 275350504 2491578.512 21720 
412.5 278290964.9 2514708.483 21793 
417.5 278175451.1 2515248.675 21937 
422.5 278994441.9 2526730.576 21882 
427.5 280466905.2 2553244.734 21636 
432.5 282682789.2 2568903.72 21620 
437.5 285059649.9 2572300.912 21765 
442.5 281004857.4 2555039.972 21400 
447.5 284087366.4 2583819.803 21521 
452.5 287858121.7 2602500.446 21818 
457.5 291584557.2 2642030.324 21750 
462.5 288600336.4 2637397.056 21550 
467.5 296064945.9 2693722.457 21851 
472.5 292990492.1 2660189.376 21596 
477.5 297254295 2685916.276 21662 
482.5 294626163.1 2680847.084 21574 
487.5 296306422.6 2696916.13 21553 
492.5 300464355.6 2713394.427 21953 
497.5 295858989.6 2704511.043 21580 
502.5 299081289.6 2741130.072 21451 
507.5 298884557.2 2725048.802 21594 
512.5 302354653.5 2742793.585 21729 
517.5 304854335.4 2764732.172 21598 
522.5 307069910.8 2788935.803 21741 
527.5 302163001.8 2766824.894 21389 
532.5 309683085.6 2802966.867 21749 
537.5 299902892.7 2762027.828 21280 
542.5 310940740.8 2835997.561 21712 
547.5 310751034.9 2824781.513 21643 
552.5 310907810.9 2837292.437 21738 
557.5 313116301.8 2855617.308 21586 
562.5 311127720.3 2835549.544 21672 
567.5 316505216.5 2861276.413 21815 
572.5 317233363.8 2883483.808 21823 
577.5 316339299.8 2894510.766 21600 
582.5 318137545.2 2889069.924 21718 
587.5 316364234.3 2879079.999 21717 
592.5 318183715.2 2904322.911 21553 
597.5 318806932.5 2911272.674 21485 
602.5 318889121.2 2905857.601 21600 
607.5 317209991 2902430.837 21587 
612.5 318565682.1 2916975.041 21561 
617.5 319417407.9 2928972.991 21521 
622.5 324804368.1 2964046.854 21559 
627.5 325020128 2958573.062 21868 
632.5 327151289.8 2976075.402 21670 
637.5 323662100.2 2951999.34 21656 
642.5 330357436.9 3002604.804 21732 
647.5 326830345.3 2983373.771 21574 
652.5 329357888.6 3001609.541 21756 
657.5 328592700.2 3002456.485 21572 
662.5 329248868.6 3001674.057 21730 
667.5 333500468.4 3032279.365 21747 
672.5 330836145.5 3017056.644 21795 
677.5 332150460.6 3020852.17 21671 
682.5 329808533.7 3022158.306 21555 
687.5 336390644 3059495.805 21574 
692.5 335027916 3058762.947 21789 
697.5 331868261 3039159.672 21441 
702.5 331436184.3 3036577.958 21683 
707.5 336563757.2 3071284.401 21616 
712.5 334285031.7 3065935.07 21702 
717.5 332374207 3057309.743 21546 
722.5 342219476.6 3094948.27 21870 
727.5 339525236.2 3102448.085 21669 
732.5 343802306.2 3118671.707 21882 
737.5 339854019 3091543.544 21705 
742.5 338733397.7 3094737.466 21571 
747.5 336877838.7 3085485.63 21588 
752.5 336280881.9 3097444.438 21458 
757.5 340388645.5 3117560.67 21748 
762.5 345316262.7 3142588.206 21719 
767.5 344667449.9 3140959.944 21713 
772.5 346151528.6 3146576.71 21790 
777.5 342260809.2 3127087.346 21608 
782.5 344495960.9 3143156.906 21766 
787.5 339250817.1 3116289.066 21576 
792.5 344641569.6 3155655.016 21496 
797.5 342431505.8 3131229.585 21683 
802.5 344057386.2 3150162.907 21630 
807.5 348166939.9 3165896.88 21777 
812.5 346464170 3169854.925 21631 
817.5 342387968.9 3136506.548 21514 
822.5 346419071.6 3166339.899 21524 
827.5 342778678.3 3142418.118 21681 
832.5 347178021.3 3156026.758 21802 
837.5 346575273.4 3174895.034 21588 
842.5 344965220.2 3155578.572 21719 
847.5 342366108.9 3146519.355 21702 
852.5 342306688 3151547.794 21473 
857.5 345870271.2 3162405.828 21610 
862.5 349148952.7 3192753.852 21665 
867.5 346611654.4 3177423.638 21444 
872.5 352326480.3 3214090.867 21605 
877.5 352638235.2 3222777.446 21773 
882.5 352133503.7 3224461.509 21589 
887.5 351503201.3 3223144.904 21649 
892.5 354969255.7 3234290.163 21783 
897.5 348819323 3211077.657 21426 
902.5 352769264.4 3226557.986 21552 
907.5 349755161.5 3210133.809 21583 
912.5 354415786.1 3235500.18 21859 
917.5 355405841.9 3238611.271 21768 
922.5 356797826.7 3244853.45 21736 
927.5 354970752.5 3240697.225 21809 
932.5 355764771.3 3251205.946 21762 
937.5 350507110.1 3222098.29 21463 
942.5 356020274.7 3250657.911 21743 
947.5 356062416.7 3252936.577 21815 
952.5 354906168.4 3250176.983 21649 
957.5 354194626.6 3245575.258 21506 
962.5 351102457.3 3235248.775 21586 
967.5 353768093.1 3234855.21 21516 
972.5 351407986.4 3229892.17 21698 
977.5 351749850.8 3229528.37 21494 
982.5 352521927.7 3238741.851 21570 
987.5 354280762.2 3249628.216 21613 
992.5 355060799.4 3251949.57 21592 
997.5 351731012.8 3244830.542 21493 
1002.5 353343414.6 3244215.947 21504 
1007.5 352085359 3237636.01 21552 
1012.5 356757532.8 3275119.744 21607 
1017.5 360130093 3287523.192 21842 
1022.5 353836549.8 3256425.443 21582 
1027.5 363180861.8 3303643.209 21972 
1032.5 354237509.9 3251763.485 21651 
1037.5 359908816.8 3294894.296 21582 
1042.5 360955792 3286850.737 21789 
1047.5 356632883.1 3281705.384 21599 
1052.5 363505599.3 3304770.847 22017 
1057.5 357122396.4 3275237.295 21457 
1062.5 354798525.1 3266608.703 21343 
1067.5 357230888.7 3278281.361 21653 
1072.5 358138542 3288553.78 21643 
1077.5 357792972.7 3291367.493 21573 
1082.5 359923102.4 3291545.259 21685 
1087.5 360037033.5 3292117.525 21488 
1092.5 358637653.3 3302294.277 21733 
1097.5 361904943.6 3308309.031 21720 
1102.5 364321603.5 3324884.958 21835 
1107.5 361073350.4 3324969.514 21490 
1112.5 359659006.1 3291178.856 21682 
1117.5 361907399.1 3305923.87 21832 
1122.5 367054550.3 3344014.769 21904 
1127.5 356693851.2 3286392.915 21490 
1132.5 358680788.1 3297691.98 21631 
1137.5 365095080.7 3339904.404 21822 
1142.5 363954727.6 3312888.655 21810 
1147.5 356000518.4 3292189.908 21331 
1152.5 357865887.1 3287602.331 21699 
1157.5 361212035.6 3303574.108 21555 
1162.5 363240299.3 3325892.855 21699 
1167.5 361746815.7 3313198.457 21756 
1172.5 366375581.2 3347276.215 21663 
1177.5 359224310.5 3317795.375 21506 
1182.5 364776940.3 3346274.037 21764 
1187.5 365798530.8 3335285.789 21841 
1192.5 364909383.8 3335399.159 21790 
1197.5 361402409.4 3318126.684 21564 
1202.5 371327078.9 3368432.231 21909 
1207.5 361938034 3314321.436 21560 
1212.5 357887883.2 3315148.878 21430 
1217.5 359878500.1 3310113.379 21686 
1222.5 367208368.8 3339787.615 21918 
1227.5 366469271.3 3351178.096 21715 
1232.5 361239679.9 3327963.298 21487 
1237.5 362275725.6 3307206.143 21800 
1242.5 364193696.7 3342270.02 21654 
1247.5 364199572.5 3332822.104 21739 
1252.5 362262532.7 3327961.793 21795 
1257.5 365666989.2 3349522.96 21663 
1262.5 369600914.5 3365123.142 21643 
1267.5 358538309.9 3312924.213 21388 
1272.5 366010354.6 3343540.274 21549 
1277.5 363926153.8 3333486.257 21553 
1282.5 366879895.4 3367603.682 21751 
1287.5 367181810 3362638.947 21792 
1292.5 358674217.5 3321679.244 21441 
1297.5 362635667.4 3337329.602 21645 
1302.5 366036105.8 3351605.134 21714 
1307.5 361836510.3 3334140.521 21396 
1312.5 362799348.1 3325438.277 21603 
1317.5 368563076.1 3376856.376 21824 
1322.5 362880678.2 3334979.936 21485 
1327.5 366503500.1 3352259.916 21642 
1332.5 364398707.8 3335820.584 21709 
1337.5 367221264 3357393.741 21601 
1342.5 368319640 3366404.192 21717 
1347.5 367668237.6 3363795.283 21833 
1352.5 361486413.4 3327063.293 21271 
1357.5 365300089.2 3369120.904 21717 
1362.5 368167177.2 3364916.151 21795 
1367.5 364552162.3 3347333.276 21871 
1372.5 365601095 3368418.572 21580 
1377.5 362435589.9 3339787.767 21627 
1382.5 366054925.5 3375841.906 21577 
1387.5 365015133.7 3352324.594 21771 
1392.5 368208509 3381577.593 21591 
1397.5 363198774.9 3347582.542 21448 
1402.5 363833204.7 3357670.532 21610 
1407.5 365891032.6 3356333.699 21697 
1412.5 364601174.2 3353374.714 21610 
1417.5 370907271.2 3375454.66 21882 
1422.5 363156240.2 3348963.755 21365 
1427.5 364937021.6 3341650.642 21577 
1432.5 366481728.5 3355095.919 21639 
1437.5 365790618.8 3353132.593 21417 
1442.5 367886103.1 3376271.352 21616 
1447.5 363767865.2 3351049.284 21515 
1452.5 366313255.9 3349677.029 21829 
1457.5 368344620.9 3370956.308 21833 
1462.5 359606779.2 3325879.804 21385 
1467.5 364854052.5 3345228.211 21562 
1472.5 370801221.8 3387398.514 21866 
1477.5 367595581.7 3362705.113 21770 
1482.5 364340093.6 3351087.53 21486 
1487.5 368707938.3 3384792.918 21834 
1492.5 367172668.1 3376334.121 21586 
1497.5 365761699.8 3356524.833 21893 
1502.5 368360667.4 3368219.784 21713 
1507.5 371841433 3389286.085 21676 
1512.5 361853364 3339521.343 21454 
1517.5 369869730.6 3393243.082 21638 
1522.5 366940212.4 3363289.871 21652 
1527.5 373697228.2 3396728.177 21749 
1532.5 370588733.8 3383984.742 21777 
1537.5 369145637.8 3374837.982 21680 
1542.5 362325771.5 3343677.814 21528 
1547.5 365001983.7 3370188.851 21436 
1552.5 374256941.6 3412282.865 21889 
1557.5 369568692.1 3381204.799 21743 
1562.5 362194350.6 3350090.038 21471 
1567.5 362529833.1 3342247.566 21598 
1572.5 370964376 3395503.209 21717 
1577.5 368731315.5 3362349.6 21597 
1582.5 368682073.6 3373824.865 21742 
1587.5 364370842 3350323.463 21719 
1592.5 366558614.6 3376451.616 21508 
1597.5 369380307.2 3394480.033 21701 
1602.5 372532059.9 3395739.625 21852 
1607.5 371014958.2 3395298.497 21697 
1612.5 364183898.2 3360413.221 21560 
1617.5 369639265.8 3382774.191 21818 
1622.5 369192489.3 3378901.003 21769 
1627.5 364185113.9 3360346.686 21499 
1632.5 365748299.3 3366506.627 21657 
1637.5 367986928.6 3368712.34 21715 
1642.5 368429412.2 3375003.481 21743 
1647.5 367536877.8 3377503.49 21635 
1652.5 368459941.3 3378559.212 21852 
1657.5 366575258.5 3365137.079 21686 
1662.5 375243821.1 3409433.883 22067 
1667.5 363623996.7 3355244.418 21402 
1672.5 371110941 3396879.852 21883 
1677.5 363409663.8 3350585.633 21525 
1682.5 359822386.7 3339899.608 21467 
1687.5 362500533.7 3354793.493 21456 
1692.5 370906212.6 3388087.876 21686 
1697.5 370051607.7 3381703.492 21645 
1702.5 369841409.5 3395147.398 21705 
1707.5 370320053.3 3386598.603 22019 
1712.5 366487142.3 3350615.069 21853 
1717.5 362924652.1 3356718.189 21460 
1722.5 361348090.8 3337124.79 21530 
1727.5 364259091.9 3351224.458 21760 
1732.5 375365092.1 3401917.859 22013 
1737.5 363539634.4 3346350.007 21540 
1742.5 367696840.4 3372216.687 21926 
1747.5 366099428 3366347.167 21538 
1752.5 366489951.4 3378568.408 21612 
1757.5 369376119.4 3381274.13 21734 
1762.5 368183760.7 3377683.245 21804 
1767.5 367803605 3375948.146 21730 
1772.5 365476843 3360348.144 21713 
1777.5 365199658.7 3369522.678 21585 
1782.5 374286429.3 3403888.746 21957 
1787.5 365231437 3371672.361 21676 
1792.5 368461964 3377160.712 21737 
1797.5 371622125.3 3396376.973 21922 
1802.5 369863257 3389459.492 21650 
1807.5 370977729.8 3400124.236 21679 
1812.5 374870808.3 3419563.466 21901 
1817.5 367528413.1 3387086.22 21513 
1822.5 367808173.3 3369382.681 21753 
1827.5 366613815.1 3372882.735 21490 
1832.5 370227355.3 3377946.664 21826 
1837.5 367271482.8 3372582.772 21707 
1842.5 371172618.3 3399129.271 21742 
1847.5 366186276 3360815.664 21485 
1852.5 365778595 3366471.944 21626 
1857.5 376156016.8 3417797.071 21822 
1862.5 366564649.2 3366504.063 21617 
1867.5 364478229.5 3354346.633 21600 
1872.5 372044690.5 3398194.136 21781 
1877.5 368797868.7 3376018.888 21578 
1882.5 361103180.6 3354030.654 21176 
1887.5 368323758.5 3388110.151 21583 
1892.5 369103225.3 3376595.845 21744 
1897.5 367313167.2 3372202.317 21559 
1902.5 366769970.8 3375246.174 21654 
1907.5 366336650.2 3364329.194 21726 
1912.5 373464494.5 3414299.516 21812 
1917.5 372602784.1 3408039.92 21813 
1922.5 369147461.4 3385058.305 21675 
1927.5 373854857.8 3406396.961 21828 
1932.5 370860437.9 3397075.998 21792 
1937.5 367290255 3373543.922 21554 
1942.5 372328539.8 3405705.99 22003 
1947.5 369021782.1 3386914.8 21647 
1952.5 367114157.8 3369965.927 21712 
1957.5 366198583 3371248.025 21709 
1962.5 371097797 3398252.727 21613 
1967.5 362411695.8 3344531.019 21438 
1972.5 363233819.1 3352160.994 21493 
1977.5 362067551.6 3359902.622 21272 
1982.5 372397618 3401566.063 21566 
1987.5 372608754.4 3400917.003 21911 
1992.5 373329197.6 3399406.54 21784 
1997.5 364982935.6 3357149.663 21590 
2002.5 373627500.4 3403661.935 21820 
2007.5 365973400.9 3379574.422 21689 
2012.5 364790459 3352233.937 21729 
2017.5 363322726.2 3368551.12 22080 
2022.5 362297931 3520647.109 26877 
2027.5 368084858.2 3710148.166 29228 
2032.5 353743867.1 3679951.149 29792 
2037.5 354161506.2 3717088.541 29467 
2042.5 344659928.3 3685594.494 28010 
2047.5 343016364.8 3678558.977 26941 
2052.5 325151571.8 3562173.167 25510 
2057.5 327031471.3 3581101.433 24827 
2062.5 320790424.6 3572555.586 23838 
2067.5 309919343.5 3513150.199 22874 
2072.5 311411257.8 3521895.278 22127 
2077.5 301021640.1 3459885.777 21298 
2082.5 294378271.1 3433011.48 20053 
2087.5 292571996.1 3459036.323 19440 
2092.5 283646256.4 3360551.897 18803 
2097.5 282786062.3 3369895.439 18049 
2102.5 281924663.1 3385384.888 17782 
2107.5 269030315.5 3301237.159 16648 
2112.5 265817950 3274947.463 16109 
2117.5 256301095.3 3236157.121 15390 
2122.5 253637452.9 3192017.471 14757 
2127.5 247210225.2 3201778.746 14298 
2132.5 244003391.4 3135699.205 13912 
2137.5 244537196.4 3162471.292 13515 
2142.5 235202423.5 3118311.62 12771 
2147.5 232965555.3 3088894.197 12516 
2152.5 224438839.5 3028456.872 11878 
2157.5 220899733.2 3004215.172 11477 
2162.5 215709593.6 2963268.535 11094 
2167.5 210122273.5 2951436.765 10604 
2172.5 211774997.2 2943748.026 10417 
2177.5 206141020.7 2926238.973 10058 
2182.5 204997745.9 2889332.925 9873 
2187.5 201986063.3 2891568.247 9349 
2192.5 195666256 2864199.028 9051 
2197.5 193274312.8 2812974.846 8752 
2202.5 191139937.9 2826652.192 8596 
2207.5 185001023.5 2783508.251 8185 
2212.5 179077866 2723947.93 8015 
2217.5 174468650.3 2684160.539 7608 
2222.5 170198087.2 2666513.952 7292 
2227.5 170785796.6 2679710.029 7258 
2232.5 170948569 2698091.336 6958 
2237.5 170293154.5 2682921.042 6953 
2242.5 161196983.2 2586292.488 6580 
2247.5 160698803.4 2581573.543 6358 
2252.5 156656113.5 2552882.853 6242 
2257.5 147414033.8 2459891.161 5836 
2262.5 151336057.1 2515703.366 5762 
2267.5 145149568.2 2461503.351 5510 
2272.5 147542430.6 2519333.111 5472 
2277.5 142676937.7 2441592.687 5325 
2282.5 140114034.3 2418802.446 5159 
2287.5 141088341.3 2437568.883 5048 
2292.5 135898224.9 2400532.953 4871 
2297.5 135932790.3 2397477.569 4778 
2302.5 132026158.2 2345224.889 4658 
2307.5 129755282.5 2348997.267 4548 
2312.5 126835007.1 2318946.454 4403 
2317.5 127626869.6 2348886.536 4291 
2322.5 127759366 2320976.509 4272 
2327.5 121897044.7 2292397.273 4043 
2332.5 118980057.1 2232673.774 3909 
2337.5 117636147.9 2256172.188 3869 
2342.5 113016343.2 2208519.536 3727 
2347.5 111427558.2 2153127.556 3654 
2352.5 108986138.8 2153665.655 3509 
2357.5 105854366.3 2106341.123 3405 
2362.5 104458465.7 2109731.288 3368 
2367.5 105852606.3 2115493.561 3291 
2372.5 104668008 2117904.647 3266 
2377.5 100418862.7 2057941.668 3149 
2382.5 101502103.5 2065997.352 3129 
2387.5 94300177.99 2000012.64 2884 
2392.5 96943123.96 2041427.121 2927 
2397.5 93368281 1990153.961 2827 
2402.5 94313567.63 2018914.629 2809 
2407.5 92242764.3 1965676.114 2726 
2412.5 88705150.88 1930865.466 2645 
2417.5 87804874.51 1937590.47 2558 
2422.5 84676015.23 1895776.261 2475 
2427.5 84138885.81 1893555.618 2456 
2432.5 86055093.68 1917869.458 2451 
2437.5 80544533.35 1852235.391 2335 
2442.5 78257405.64 1805118.517 2267 
2447.5 76693725.42 1802704.691 2197 
2452.5 77337887.5 1824966.727 2208 
2457.5 74922527.72 1776463.314 2139 
2462.5 73946149.86 1799774.17 2041 
2467.5 75885125.53 1795139.125 2116 
2472.5 73043641.85 1771500.027 2041 
2477.5 71042568.26 1727023.534 1979 
2482.5 71265727.82 1765263.312 1938 
2487.5 67728736.23 1676863.575 1878 
2492.5 64973975.02 1666632.165 1810 
2497.5 65617588.74 1682283.051 1788 
2502.5 65410472.02 1682635.349 1754 
2507.5 62174303.4 1647136.296 1699 
2512.5 62723219.11 1644097.963 1708 
2517.5 66063432.59 1702551.142 1753 
2522.5 62087754.66 1682689.129 1645 
2527.5 60762100.72 1616602.426 1614 
2532.5 58578132.49 1586657.191 1593 
2537.5 57105261.06 1569922.013 1524 
2542.5 55040883.75 1550533.351 1443 
2547.5 54180481.17 1499581.701 1457 
2552.5 53020351.92 1493700.371 1420 
2557.5 56605341.44 1526770.211 1497 
2562.5 54346178.03 1521827.121 1434 
2567.5 48390335.79 1441582.226 1284 
2572.5 48845751.39 1434594.311 1295 
2577.5 51751715.67 1504759.689 1350 
2582.5 49335863.79 1446218.054 1275 
2587.5 46499185.63 1401378.66 1206 
2592.5 46310831.62 1398275 1206 
2597.5 49364461.78 1458413.499 1271 
2602.5 45280952.63 1400464.499 1158 
2607.5 43331784.3 1362826.908 1120 
2612.5 42051227.43 1357544.943 1069 
2617.5 43159897.8 1410858.783 1094 
2622.5 43124592.46 1369517.836 1108 
2627.5 43797976.61 1394850.682 1114 
2632.5 40272194.94 1292922.588 1037 
2637.5 40687154.27 1332513.028 1040 
2642.5 39487603.85 1318767.372 1009 
2647.5 38431426.85 1292927.842 979 
2652.5 38119722.5 1283858.878 974 
2657.5 37281336.84 1274613.599 945 
2662.5 36261469.48 1257067.19 921 
2667.5 39358377.76 1370335.847 957 
2672.5 36964938.11 1287782.789 921 
2677.5 33910945.02 1192610.691 857 
2682.5 34722800.99 1218766.862 883 
2687.5 35818001.45 1280452.845 891 
2692.5 32204535.24 1179469.601 804 
2697.5 31713852.79 1182726.35 785 
2702.5 33879092.72 1194438.356 853 
2707.5 32616010.34 1229049.289 795 
2712.5 29216376.4 1115467.863 732 
2717.5 31955542.63 1175360.266 801 
2722.5 30396380.56 1167882.77 753 
2727.5 30721325.86 1163386.228 761 
2732.5 28552117.57 1106084.05 711 
2737.5 29048184.11 1138203.135 714 
2742.5 26976951.7 1075118.986 672 
2747.5 27745814.07 1098834.048 682 
2752.5 27949989.61 1132068.891 684 
2757.5 26334041.35 1056628.04 653 
2762.5 25122794 1045331.851 626 
2767.5 25019088.16 1042495.694 619 
2772.5 26648841.43 1085222.054 650 
2777.5 24718847.82 1044963.872 606 
2782.5 24721184.84 1068021.153 598 
2787.5 20968561.16 936520.9695 518 
2792.5 23864024.82 1009044.821 593 
2797.5 23557552.57 1021241.208 579 
2802.5 22985355.57 1040439.704 554 
2807.5 23137656.85 1012349.975 576 
2812.5 21457261.37 957618.2382 535 
2817.5 21731407.66 947668.3675 548 
2822.5 21766135.86 991174.3781 526 
2827.5 21237703.9 970391.5089 523 
2832.5 19941082.08 962081.46 481 
2837.5 20998009 979010.156 507 
2842.5 17668450.95 879714.3691 434 
2847.5 19353332.98 949012.7315 470 
2852.5 18952791.08 895023.4381 468 
2857.5 17371173.45 883048.4517 421 
2862.5 18714883.13 911262.3254 458 
2867.5 17929697.45 905039.0016 434 
2872.5 19335015.66 917129.1225 473 
2877.5 17680731.33 900155.4486 427 
2882.5 16721036.9 860189.2506 408 
2887.5 16807189.27 867831.1712 407 
2892.5 16613027.24 818897.1286 414 
2897.5 16412085.62 850905.1712 398 
2902.5 15702626.45 840629.2252 380 
2907.5 14870256.14 795817.1123 364 
2912.5 14880881.37 826951.4741 358 
2917.5 14570039.52 768350.0095 361 
2922.5 15653035.45 855396.6557 372 
2927.5 16196535.3 867215.7212 388 
2932.5 13635224.16 753385.3615 336 
2937.5 15059858.17 825709.1196 361 
2942.5 14255780.43 813505.0514 341 
2947.5 14393649.99 773892.3601 357 
2952.5 16001743.56 859000.9386 382 
2957.5 13732434.21 777478.5722 334 
2962.5 14181975.74 805460.1531 340 
2967.5 13425684.91 787558.7481 320 
2972.5 13837159.04 777777.5795 338 
2977.5 12008202.37 739961.6854 287 
2982.5 13910398.76 801050.3516 331 
2987.5 12928245.02 739914.9664 317 
2992.5 12477209.75 743541.2076 301 
2997.5 11811966.41 759401.647 279 
3002.5 10868184.4 696565.5564 262 
3007.5 11185769.36 697998.5812 271 
3012.5 11881162.23 723098.7036 288 
3017.5 10920678.51 679493.3429 269 
3022.5 11359963.72 776598.1994 256 
3027.5 9829426.75 656427.7425 239 
3032.5 9207993.406 619429.0957 226 
3037.5 9110265.209 645372.374 217 
3042.5 10675043.71 689284.7265 257 
3047.5 8724126.643 636095.932 207 
3052.5 10161998.16 707410.873 236 
3057.5 9535261.772 621010.9245 237 
3062.5 8942137.587 685313.3063 203 
3067.5 8941916.28 601893.6443 221 
3072.5 8319999.103 618585.3739 200 
3077.5 8582732.334 589862.2228 212 
3082.5 7937707.453 582360.3145 193 
3087.5 9140375.47 645141.5463 219 
3092.5 8840702.26 636217.5014 211 
3097.5 10134397.14 682394.727 242 
3102.5 8336024.633 606734.5661 202 
3107.5 8611838.859 628788.1407 205 
3112.5 8988090.06 679970.2748 205 
3117.5 7061613.062 547572.7965 172 
3122.5 7601135.716 603753.3986 178 
3127.5 7852354.326 604037.6661 186 
3132.5 7075094.686 565512.1241 170 
3137.5 7892303.278 624088.0096 185 
3142.5 7345689.707 557786.6603 181 
3147.5 7030934.971 569771.2873 167 
3152.5 6998921.201 559364.9799 168 
3157.5 8089101.881 644919.1092 186 
3162.5 6240727.676 549450.5766 146 
3167.5 5708803.753 511134.6088 136 
3172.5 6542678.861 570458.3125 151 
3177.5 5667262.435 507323.9453 135 
3182.5 5761420.468 482078.9487 143 
3187.5 6613648.866 544910.7151 159 
3192.5 6096566.792 496469.4479 151 
3197.5 4830509.582 461550.2676 117 
3202.5 5984279.412 504597.5613 146 
3207.5 4455790.657 425166.1668 110 
3212.5 5296112.267 492703.5866 126 
3217.5 4717484.644 436380.5423 117 
3222.5 5290335.713 508398.8195 123 
3227.5 6237662.297 535802.8843 148 
3232.5 4698595.762 450984.2368 114 
3237.5 5747301.575 512408.7808 137 
3242.5 4304784.372 418379.7569 106 
3247.5 5760137.248 543447.0846 133 
3252.5 5347568.432 508433.5832 126 
3257.5 4837088.882 509660.7084 109 
3262.5 4961913.885 479446.5659 118 
3267.5 4180782.043 449048.6416 98 
3272.5 4504982.065 427841.8005 111 
3277.5 4606635.954 468072.8979 110 
3282.5 4509555.182 474361.3609 104 
3287.5 5125641.482 498991.7456 120 
3292.5 4577074.965 472930.4306 106 
3297.5 3605803.318 405415.3977 86 
3302.5 4578113.975 477369.2878 106 
3307.5 4515945.036 493744.8398 101 
3312.5 4799226.407 514514.5026 106 
3317.5 4161031.989 410284.9841 103 
3322.5 4488857.034 476050.599 103 
3327.5 3270476.617 399608.8443 76 
3332.5 3167098.013 358840.9909 78 
3337.5 4078144.423 475728.7182 91 
3342.5 3632529.728 398162.0025 89 
3347.5 3356997.661 368674.0669 83 
3352.5 3754049.943 421232.6509 88 
3357.5 3365692.428 367455.135 84 
3362.5 3942871.248 440173.247 92 
3367.5 2870351.75 340880.476 71 
3372.5 3940157.283 446311.9642 90 
3377.5 3606936.912 406222.6717 86 
3382.5 3268096.032 400025.9931 76 
3387.5 3026674.64 367515.9061 73 
3392.5 3045748.845 375299.6576 72 
3397.5 2478219.936 317522.6723 61 
3402.5 2155925.729 296315.748 53 
3407.5 2393844.55 330984.2808 57 
3412.5 2255142.222 301435.0492 57 
3417.5 2077848.12 291118.201 51 
3422.5 2367737 331545.2598 56 
3427.5 2463378.081 343448.2953 58 
3432.5 2599182.857 370217.0978 59 
3437.5 2602432.55 370929.3279 59 
3442.5 3084902.679 373045.3398 74 
3447.5 2634971.842 327021.2468 65 
3452.5 2225961.261 300326.3823 55 
3457.5 2834524.954 361776.4092 67 
3462.5 2244137.787 324046.9449 53 
3467.5 2187342.836 318542.542 52 
3472.5 2168730.329 338953.9147 49 
3477.5 2543013.612 390427.0122 55 
3482.5 1614179.425 255381.2261 40 
3487.5 2387763.949 333833.8322 56 
3492.5 2281653.1 325944.6678 54 
3497.5 2015390.553 330296.8879 45 
3502.5 1932661.659 279137.8812 48 
3507.5 1754498.806 309677.6787 39 
3512.5 2005913.113 309503.6371 47 
3517.5 1998150.834 282719.6458 50 
3522.5 1614264.4 255394.6325 40 
3527.5 2475335.677 335243.5015 59 
3532.5 1608649.91 285033.1157 37 
3537.5 1895965.338 309490.9009 44 
3542.5 2037019.341 314454.0574 48 
3547.5 2199558.792 320316.0957 52 
3552.5 1622925.484 316115.7148 35 
3557.5 1544746.962 274690.8151 36 
3562.5 1663997.253 260034.0803 41 
3567.5 1905199.344 324511.3064 42 
3572.5 1869913.654 275873.9158 46 
3577.5 1815548.386 320412.3551 40 
3582.5 1368093.698 234815.0396 34 
3587.5 1415988.465 239532.789 35 
3592.5 1437031.523 271014.484 33 
3597.5 1996086.677 309979.0347 47 
3602.5 1492856.391 245538.5781 37 
3607.5 1614106.756 255392.5322 40 
3612.5 1376526.868 236250.7207 34 
3617.5 1009133.249 201962.5401 25 
3622.5 1013557.319 202806.3042 25 
3627.5 1311820.739 257999.274 30 
3632.5 1359203.12 261000.3934 31 
3637.5 1319472.559 261618.2563 30 
3642.5 963584.4699 196842.9573 24 
3647.5 1424758.392 267220.3696 33 
3652.5 1141316.017 215805.005 28 
3657.5 1165367.031 254929.0785 26 
3662.5 1082164.966 244953.8214 24 
3667.5 1431184.613 242041.6069 35 
3672.5 1372015.791 290387.0811 29 
3677.5 1210845.277 221202.412 30 
3682.5 1242058.992 223185.6553 31 
3687.5 873597.143 227390.9403 19 
3692.5 1141664.302 215884.5301 28 
3697.5 582365.7633 155700.5813 14 
3702.5 808127.4201 180848.621 20 
3707.5 1051607.497 206421.7212 26 
3712.5 1063271.418 208655.4405 26 
3717.5 1287368.333 227695.2056 32 
3722.5 734608.6878 173214.2134 18 
3727.5 934354.0998 194909.8853 23 
3732.5 1186503.916 286583.1918 24 
3737.5 1285334.068 227390.4503 32 
3742.5 845384.9804 227039.16 18 
3747.5 734622.3214 205331.9162 16 
3752.5 983665.1906 232066.3742 22 
3757.5 989987.2277 230178.1939 22 
3762.5 924148.2718 233941.6173 20 
3767.5 963368.7629 235588.0429 21 
3772.5 960104.5469 196121.463 24 
3777.5 829376.2208 217994.9952 18 
3782.5 641691.3169 160519.9713 16 
3787.5 967766.5825 197649.2912 24 
3792.5 574095.9056 153503.3029 14 
3797.5 809814.893 181185.9844 20 
3802.5 890352.2101 189981.5924 22 
3807.5 840375.5182 183495.052 21 
3812.5 947119.3836 228146.0343 21 
3817.5 323532.4329 114439.5293 8 
3822.5 563655.895 150798.0477 14 
3827.5 525630.9282 145850.2759 13 
3832.5 726969.4967 221625.8278 15 
3837.5 446530.0063 134753.2213 11 
3842.5 1047286.925 205558.0066 26 
3847.5 602721.183 155699.2563 15 
3852.5 999467.71 238731.1808 22 
3857.5 757638.4596 258939.4193 13 
3862.5 564443.9389 150930.181 14 
3867.5 934790.4632 195054.1908 23 
3872.5 357066.7278 119125.9271 9 
3877.5 643367.1466 160972.4293 16 
3882.5 359812.1389 119974.9997 9 
3887.5 613300.4563 236724.7437 10 
3892.5 436828.9214 131780.3314 11 
3897.5 531142.8082 147434.9765 13 
3902.5 546497.2845 196249.3285 11 
3907.5 450392.9424 135868.4248 11 
3912.5 473833.6675 136867.6146 12 
3917.5 480251.0375 195075.5677 9 
3922.5 728177.1834 241563.1001 13 
3927.5 500707.3437 184160.3233 10 
3932.5 912263.2027 227808.7907 20 
3937.5 239397.8383 97818.67117 6 
3942.5 279365.6043 105686.0465 7 
3947.5 322647.7301 114174.4456 8 
3952.5 531298.644 147402.8234 13 
3957.5 874557.5486 229023.4437 19 
3962.5 440439.3186 132887.0919 11 
3967.5 279791.0709 105879.9035 7 
3972.5 408546.2918 129276.3188 10 
3977.5 356941.1164 119038.8178 9 
3982.5 602655.3272 155723.874 15 
3987.5 325273.9143 115054.6925 8 
3992.5 362618.1461 120985.1102 9 
3997.5 573582.4905 153360.7582 14 
4002.5 316955.857 112090.8357 8 
4007.5 359147.9454 119787.6377 9 
4012.5 118523.7885 68464.28162 3 
4017.5 397136.9886 189910.5062 7 
4022.5 281117.5835 106380.056 7 
4027.5 318417.4743 112644.872 8 
4032.5 237575.547 97020.2774 6 
4037.5 404746.375 128093.0412 10 
4042.5 285508.9756 107993.2244 7 
4047.5 441849.623 133268.0507 11 
4052.5 358730.3449 119682.1806 9 
4057.5 120455.3081 69611.59018 3 
4062.5 322074.8672 113983.266 8 
4067.5 443130.2085 133707.4178 11 
4072.5 435990.4059 131476.953 11 
4077.5 286797.7633 108483.1951 7 
4082.5 119389.9119 68974.21031 3 
4087.5 166291.7617 83196.30851 4 
4092.5 123458.6076 71416.65172 3 
4097.5 316241.0391 111892.0938 8 
4102.5 354330.7733 179357.0357 6 
4107.5 337411.9216 167217.7182 6 
4112.5 122045.0185 70516.49686 3 
4117.5 301272.5738 167044.9386 5 
4122.5 359768.7254 120032.8025 9 
4127.5 237959.4422 97180.43083 6 
4132.5 237062.8149 96841.06224 6 
4137.5 240413.9063 98194.71051 6 
4142.5 347116.4859 177097.2331 6 
4147.5 121147.8107 70016.59059 3 
4152.5 203559.5301 91108.59329 5 
4157.5 348446.1261 180132.0547 6 
4162.5 282980.7392 107043.5596 7 
4167.5 160957.4356 80518.6091 4 
4172.5 446526.7087 134762.7735 11 
4177.5 467745.4892 239306.3647 6 
4182.5 125014.051 72189.18425 3 
4187.5 158541.8708 79366.63844 4 
4192.5 198598.9552 88867.1976 5 
4197.5 242132.2811 98925.56042 6 
4202.5 446441.5833 134654.6223 11 
4207.5 244475.4382 99903.40862 6 
4212.5 161203.9997 80736.41607 4 
4217.5 241980.3414 98852.49348 6 
4222.5 122337.3118 70675.47065 3 
4227.5 42727.42775 42727.42775 1 
4232.5 282224.4611 106736.0215 7 
4237.5 241161.5779 98528.33304 6 
4242.5 202130.7464 90426.47994 5 
4247.5 40508.75063 40508.75063 1 
4252.5 336876.5173 169569.1727 6 
4257.5 234038.7785 173331.0301 3 
4262.5 203312.0779 90998.73508 5 
4267.5 40721.35223 40721.35223 1 
4272.5 283009.9507 107052.9708 7 
4277.5 159363.6853 79707.31759 4 
4282.5 81331.38247 57530.12059 2 
4287.5 275815.2201 179246.9545 4 
4292.5 0 0 0 
4297.5 124182.3998 71783.57741 3 
4302.5 164406.3374 82261.99255 4 
4307.5 81179.34564 57490.21737 2 
4312.5 122647.1242 70828.34895 3 
4317.5 123133.766 71102.30573 3 
4322.5 41239.96877 41239.96877 1 
4327.5 82964.5943 58671.84498 2 
4332.5 42117.77806 42117.77806 1 
4337.5 166559.3923 83320.26728 4 
4342.5 268966.3115 171743.431 4 
4347.5 122217.0973 70659.50025 3 
4352.5 83471.42287 59067.52498 2 
4357.5 79351.20099 56119.46325 2 
4362.5 81773.89714 57823.36044 2 
4367.5 217375.7263 162057.0378 3 
4372.5 82449.11827 58355.46755 2 
4377.5 163578.4487 81828.083 4 
4382.5 42952.40089 42952.40089 1 
4387.5 80463.84172 56998.45885 2 
4392.5 42418.72551 42418.72551 1 
4397.5 38417.95892 38417.95892 1 
4402.5 165011.5266 82519.32345 4 
4407.5 244598.3043 99960.28995 6 
4412.5 40104.69314 40104.69314 1 
4417.5 0 0 0 
4422.5 82399.87266 58271.20308 2 
4427.5 304393.4074 171102.4576 5 
4432.5 83710.43994 59197.01364 2 
4437.5 83258.56327 58875.53677 2 
4442.5 79971.40975 56570.03835 2 
4447.5 41730.29805 41730.29805 1 
4452.5 145324.1409 145324.1409 1 
4457.5 78457.8116 55520.34382 2 
4462.5 0 0 0 
4467.5 78291.98204 55363.55408 2 
4472.5 0 0 0 
4477.5 122499.1491 70765.9605 3 
4482.5 0 0 0 
4487.5 0 0 0 
4492.5 80344.73662 56812.66098 2 
4497.5 78900.95922 55848.94331 2 
4502.5 42926.77858 42926.77858 1 
4507.5 85427.36778 60407.88733 2 
4512.5 0 0 0 
4517.5 0 0 0 
4522.5 0 0 0 
4527.5 0 0 0 
4532.5 38392.30781 38392.30781 1 
4537.5 0 0 0 
4542.5 83595.44901 59133.01807 2 
4547.5 42829.56833 42829.56833 1 
4552.5 0 0 0 
4557.5 120370.8702 69499.92107 3 
4562.5 118298.2088 68304.15551 3 
4567.5 79252.41984 56085.79503 2 
4572.5 38850.48691 38850.48691 1 
4577.5 40098.94026 40098.94026 1 
4582.5 42761.22721 42761.22721 1 
4587.5 123484.5461 71295.83729 3 
4592.5 40794.61524 40794.61524 1 
4597.5 39957.98514 39957.98514 1 
4602.5 39757.17357 39757.17357 1 
4607.5 76700.47765 54235.49526 2 
4612.5 38410.06307 38410.06307 1 
4617.5 78385.00968 55441.72469 2 
4622.5 39936.16443 39936.16443 1 
4627.5 82921.97671 58687.894 2 
4632.5 0 0 0 
4637.5 0 0 0 
4642.5 76548.33771 54134.4598 2 
4647.5 79992.24843 56583.06207 2 
4652.5 0 0 0 
4657.5 38700.80248 38700.80248 1 
4662.5 42868.65013 42868.65013 1 
4667.5 81685.82973 57843.4871 2 
4672.5 0 0 0 
4677.5 42209.86418 42209.86418 1 
4682.5 0 0 0 
4687.5 0 0 0 
4692.5 41531.73299 41531.73299 1 
4697.5 0 0 0 
4702.5 166918.4383 83489.07513 4 
4707.5 0 0 0 
4712.5 77934.612 55119.87394 2 
4717.5 42545.45837 42545.45837 1 
4722.5 39538.15864 39538.15864 1 
4727.5 0 0 0 
4732.5 39426.86116 39426.86116 1 
4737.5 0 0 0 
4742.5 39782.89725 39782.89725 1 
4747.5 39074.44269 39074.44269 1 
4752.5 122539.4759 70791.98525 3 
4757.5 0 0 0 
4762.5 40057.19386 40057.19386 1 
4767.5 40722.70163 40722.70163 1 
4772.5 0 0 0 
4777.5 37857.00299 37857.00299 1 
4782.5 0 0 0 
4787.5 42150.94147 42150.94147 1 
4792.5 0 0 0 
4797.5 41406.82784 41406.82784 1 
4802.5 42245.25593 42245.25593 1 
4807.5 0 0 0 
4812.5 0 0 0 
4817.5 0 0 0 
4822.5 0 0 0 
4827.5 0 0 0 
4832.5 0 0 0 
4837.5 0 0 0 
4842.5 0 0 0 
4847.5 41843.82161 41843.82161 1 
4852.5 0 0 0 
4857.5 0 0 0 
4862.5 41834.85639 41834.85639 1 
4867.5 0 0 0 
4872.5 0 0 0 
4877.5 0 0 0 
4882.5 0 0 0 
4887.5 41345.73075 41345.73075 1 
4892.5 0 0 0 
4897.5 0 0 0 
4902.5 134228.0127 134228.0127 1 
4907.5 0 0 0 
4912.5 0 0 0 
4917.5 41121.36989 41121.36989 1 
4922.5 0 0 0 
4927.5 0 0 0 
4932.5 0 0 0 
4937.5 41482.54182 41482.54182 1 
4942.5 0 0 0 
4947.5 0 0 0 
4952.5 41627.22041 41627.22041 1 
4957.5 0 0 0 
4962.5 0 0 0 
4967.5 0 0 0 
4972.5 0 0 0 
4977.5 0 0 0 
4982.5 0 0 0 
4987.5 79791.34449 56429.44709 2 
4992.5 0 0 0 
4997.5 0 0 0 
