# Format: McCode with text headers
# URL: http://www.mccode.org
# Creator: McStas 2.6rc1 - Oct. 12, 2019
# Instrument: Test_Sources.instr
# Ncount: 1000000
# Trace: no
# Gravitation: no
# Seed: 1570893941
# Directory: Test_Sources/4
# Param: source=5
# Param: Lmin=1
# Param: Lmax=11
# Date: Sat Oct 12 09:53:37 2019 (1570866817)
# type: array_2d(40, 40)
# Source: Test_Sources (Test_Sources.instr)
# component: m2
# position: 0 0 1
# title:  Intensity Position Position Monitor (Square) per bin
# Ncount: 1000000
# filename: m2_1570866816.x_y
# statistics: X0=-4.65154e-05; dX=0.0288566; Y0=-4.73425e-05; dY=0.0288495;
# signal: Min=1.2757e+08; Max=1.87291e+08; Mean=1.51279e+08;
# values: 2.42046e+11 3.4013e+08 999973
# xvar: x
# yvar: y
# xlabel: x [m]
# ylabel: y [m]
# zvar: I
# zlabel: Signal per bin
# xylimits: -0.0499995 0.049999 -0.0499985 0.0499988
# variables: I I_err N
# Data [m2/m2_1570866816.x_y] I:
166695890 132652510.3 156886393.8 163077308.8 158013636.7 144347424.4 153601142.1 153570501.9 146287260.5 155009306.4 154894803.4 145071362.1 158167243.5 141840729.8 163480995.1 154624242.2 154401034.6 159685263.9 160958718.2 148503406.2 154001322.5 146767841.6 156124435 144253056.7 138993122.2 143860294.7 146213718.8 152870528.9 150261800.4 157026473.1 138394274.1 159964316.1 149662236.8 139882739.9 154779282.6 135089114.5 151876798.1 134760813 155854382.9 157955782 
155988207.3 152690849.5 150282844.7 144489651.2 140367047 148693559.7 157706938.4 148664436.1 149704250.5 135304326.3 147784623.6 146931625.5 160025744.3 170757761.8 147620661.1 143479092.6 148441227.8 157615385.9 144879906.1 152717023.7 147381048.6 157159526.7 154063602.5 143829505.6 155809464.5 157064760.4 152614838.9 162107059.7 187290621.1 159205143.5 151852057.3 170371736.1 145201661.5 138439216.2 152657244.4 160298439.1 138135566.9 155838152.2 147093215.1 153131371.7 
158212813.9 163714681.7 156781192.1 145599949.7 142873027.2 156195616.7 155127527.5 156607903.6 139459234.9 162515026.6 156692914.7 158520164.1 166562075.5 161443798.1 156492513.9 152794713.4 135723214.5 141683564 146922577.7 169729829.9 136042823.5 162088477.2 153130788.5 152665522 139639880 168928708.7 135963064.5 141887011 156741152.7 153174149.8 154630354 145888859.9 163079969.5 149502843 135838637.3 157714122.4 166480059.6 156631412.7 155844559.5 150957898.8 
151232652.6 146489787.1 156414130.5 149936359.1 164236247.6 158319277.7 157667771.7 156493289.8 152541133.9 156544374.5 152229215.1 141512922.8 147885911.5 150373558.2 170007226.1 157752598.4 145516925.5 140142839 149904949.8 157167769.3 148455992.3 164928437.6 163421909.6 151699090 154413066.4 140242814.5 144493444.2 151191634.4 150263034.3 147594891.9 151078471.2 150016090 139927331.8 163422067.1 142285523.6 157753761.8 141441214.3 139493786.6 154387979.1 153071086.6 
155736329 157696725.5 151728075.3 146452342.9 156197539.2 132824199.2 147885230.5 143192748.5 151922228.8 150576714.7 147276057.1 150493253.8 161039996.5 144316351.2 154287078.9 146835265.6 164172188 146155800.8 154839299.1 155262793.7 143543723.4 138272518.3 151411036.1 136679675.5 148025348.2 143100491 147771598.4 154473502.1 146292102.1 146180925.4 155365834.5 139132441.1 148083054.5 159346697.7 161380259.5 142118611.4 149098778.1 153533698.7 145053539 153114878.6 
154321096.7 148038274.1 139486219.5 150843770.6 160932112.9 160343237 154928192.7 152681884.9 145157474.5 160396028.1 142220830.7 168401985.4 149948185.3 161769573.4 157713389.6 148342632.1 144629987 162803121.4 136419241.9 162064319.3 154918297.7 153184537.1 144175012.8 153881744.7 158311890.2 149763033 153189394.1 159457843 150408798.7 143810929 148102132.9 152008476 155703065.7 153938903.5 146714965 150137979.4 145889690.4 150581284.6 160984697.1 146047700.6 
142018522.3 160781018.8 159429613.5 151870291.7 135391441.6 139805363.3 144077804.7 137377950.4 165861922 138311334.7 160943556.2 152033489.6 157897849.6 157498472.6 145149027.9 166648075.8 149079135.8 145660928.5 162615685.1 159707698.8 155733172.7 150976531.1 145952346.3 152878675.2 172097207.2 149285158.5 150435465.4 160696728 149680509.3 151766329.9 155785100.9 154751183.2 154460985.6 147897372.5 155320697.2 156210322.8 157180493.8 154902825.7 135933392.6 152811375.5 
157967995.8 151483521.6 149774678.2 156597838.1 143115284.4 154706200.7 157002023.1 148033281 149869084 166659505.2 142887279 159923111.2 135248823.5 148558085.8 151291464.6 156581600.7 157878890.1 144300939.6 155079641.5 154347438.6 137831098.3 158361435.2 149053636.5 144481706.3 147069450.7 137958591.6 146186871.8 169220660.4 156113961.5 144060524.9 141349668.3 137062831 149479881.2 166534618 151035318.5 147483934.7 158925844.5 132510826.3 137400499.5 175261864.1 
150447545.8 173589985.5 139349183.6 137762313.3 161042278.5 153281755.2 153920387.1 158141786.5 160296668.5 145170063.3 143370414.7 148587644.2 148546592.5 148205203.4 161854158.3 152286444.1 161941537.6 166111848.1 154078011.2 148433604.7 136266877.5 160062856.1 149602522.7 140240906.9 155386117.7 145687705 139542530.7 164710518.3 147745215.3 148310648.9 138146960.4 155598771.4 155672181.4 134944546.3 146887868.9 129713189.9 152651773.7 171738859.7 146803917.4 150867432.8 
146435961.6 146492024.8 146373326 163670942.3 150884143.6 148008219.9 160605451.9 147859735.4 153986242.5 157539168.2 140207453.1 156758928.9 158009313.5 148887045.1 134859803.3 154014112.7 144801304.4 132476536.2 145142561.8 152406526 148334437.3 130736840.5 154926511.6 134352270.4 150330805.4 154893901 145297449.6 154239016.3 155169055.9 157191204.5 153384413.5 161840590 142095428.4 134010608.4 157448824.3 144033470.1 140541411 156277650.4 157652312 146645307.3 
154464747.3 155408797.1 167973817.9 147132268.8 151398749 156985607.2 142984810.7 160443610.4 150415885.8 147796217.6 145551058.9 146919818.5 160389509 153849800.7 153996027.4 141453525.4 159200533.1 159658011.4 142683305.5 154706854.2 139758298 145515101.5 144008303.6 136389297.4 165325254.8 145561761.9 154881874.9 142434271.2 157083881.4 142817010.6 150177203.4 159121317.1 141162124.4 145455009.8 165234988.4 159893660.8 160715082.9 145717727 150326515.9 157049476.6 
165254375.1 146412830.1 146507923.3 155451695 140879289.7 164902186.2 151613937.4 146411618.4 166514422.9 156094218.1 150500133.3 163395173 150767065.2 155192901 156055457.7 162429814 154079435.9 159307172.2 139158775.3 162155410.1 161155539.6 156834917.9 174934245.4 161371562.7 154860496.4 152001486.3 147627389.7 147510875.5 155664002.1 171471334.8 158161376.3 127569707.5 147438927.2 145762097.5 145319447.1 150008071.4 141040852.3 140035698.2 148500685.9 149320713.8 
149545498.7 162151042.2 153539367.2 159831929 144237113.4 145839190.7 151411973.3 162531062.1 160943413.6 164153748.9 157015735.4 157389403.5 134903663.2 149406205.5 142149031 143742097.6 159867053.1 144724319.7 147677345.3 155242946.9 148294283.3 139127302.6 156749799.1 153583156.3 150656385.9 135345285 163978140.1 168454126.9 164870773.5 148922617.9 143284475.3 141578847.1 153942287.1 142769931.7 157929354.2 151680791.7 154123057.9 148474513.3 146645912.7 145567520.6 
136426267.6 146113961.2 155670995.5 151385828.7 157296650.3 160378375.4 168678852.9 138518811.1 154106738.1 138334742.5 147646849.6 150552865.4 139318884.1 154572237.4 151063924.8 148194828.4 153416254.8 170196227.1 164610574.7 158793060.5 153053004.7 135185619 159488442.3 139989772.4 141507447.5 152444398.5 157247056.3 151238144.3 156908658 144395650.2 143476039.1 156035140.6 167100948.3 154046947.3 134419017.4 151115665.1 151057559.4 152155172 157661542.2 153756900.1 
156884696 152020675.5 152415254.5 156618909 163579061.1 168775617.3 142335579.5 161602149.8 159540617 146122428.9 151107850.6 159565427.7 152307912.6 150621841.3 155226260.2 149619984.8 154315773.4 146474638.6 162971288.2 153151272.8 155892332.7 141717115.1 145383097.3 152722336.1 157715835.8 150082205.9 159769355.8 144553441.5 164913864.6 144722523 158358194.2 142100398.8 144815909 176832918.4 156105693.5 140709616.3 162417960.1 137559875.5 152302450.5 160369937.4 
135955281.5 164621701.8 149798121 169814840.7 154776209.4 145626112.2 156946702.3 137882944.2 150867072.9 147719266.7 140416311 152110961.3 139039308 149766101.3 151882442.2 144826838.5 167330516.4 140856458.1 151152962.5 158568769.7 148195408.3 154972564.5 152114760.1 155140695.1 160238220.4 146059375.4 147088700.4 152474841.4 148228790.4 165050121.6 142890529.1 151140407.5 150598308.8 132633673.9 161163238.9 169850525 147147024.5 143115513.8 145996271.2 151747478 
150733998.8 166741778.3 147065027.4 138674651.6 148028877.1 151677422.6 152047648.6 134280746 147443236.6 157097420.9 150756896.7 137475151 150463829.9 156535971.3 133025094.2 147947243.1 145138734.8 158378844.2 142438725.1 148668310.7 154017959 146808530.1 141954875.6 144016145.1 137973690.3 146242635 144360370.5 167582118.1 145148698.3 153620417.9 149538416.5 161198114.9 144405322.4 156622874.1 158490212.1 159048132.5 155187199.7 146435288.4 154752554.7 146553513.2 
164934480 143614775.3 146484748.7 137009791.7 150769063.5 145742582.4 144661278.9 145687029.6 155212961.4 138446580.4 145238445.9 147605328.9 142052014.6 149609639.3 155896892.1 152000033.6 141222937.2 152489942.6 158074448.9 140986774.9 142217448.9 142199873.1 140116508.6 144215188 151425469.5 152917167.7 155900370.9 165242566.3 167264946.2 141817966.3 137921957.4 149225834.7 147173565.5 156532476.1 138837791.5 147176692.5 146220000 163407789.5 155447114 139416391.8 
157390572.7 153216753.8 145627743.7 156248154.8 156786859.4 140533217.8 144464307 159406482.8 148299553.6 143553281.6 164331120.5 153776680.9 163786799 155703230.6 154897118 140953372.7 155716224 155973125.3 142641233.8 140533006.1 155781946.9 163176107.7 155842727.5 149737035.2 159501876.5 144440505.9 132270494.5 149014477.7 145054972 157819123 142627648.5 151313388.2 144727716.1 137858621.3 141614845.4 157399082.6 143329534.9 159149064.3 153254867.8 164273641.6 
138096472.7 166766954.5 146367347.1 154061387.5 146087472.3 159455083.1 132155946.2 154417341.9 149140426.4 146455216.1 146252290.8 164027552.6 151785715.1 154792495.8 153450887.9 138509110.9 152908257.3 151697837 145539253.4 147056673.4 142052280.5 168352540.8 143531883.1 149305039.9 162721084.4 164481681.5 144792706.2 162719868.6 158380306.1 149174448.3 140492348.5 152733364.8 147448043.7 153683790.6 148166150.9 142414122.5 164135971.5 152906999.8 156635688.2 172521227.5 
162984956.4 152012176 147466740.7 161287437 151880435.3 160571857.4 144095312.9 155147648.7 138849107.7 139930762.1 154662404.3 151917667.1 157199850.5 147186303.2 166052740.1 160491751.1 145096429.5 154024742.2 145174956.6 170419515.7 151327595.6 144350528.6 155022523.1 158534598.7 154664520.5 146838197.6 136555214.3 154079402.2 167519421.6 150777040.6 158692142 139595447.9 147070339.4 135439960.6 162022968.5 160389633.2 165567032.4 144530504.5 151482241.3 160691391.5 
156956690 139563922.1 160934156.8 163615191.4 151844712 145735949.7 135897232.3 158145009.6 146296349 159887989.6 143484624.7 147952458.8 155258304.6 144707131.1 146295997.7 153929591.4 151080119 155188039.5 141912452.7 144851554.4 144176926.1 147312731.6 145052800.1 157197605.5 158943453.8 155798821.2 155787247.3 151590317.1 156704865.4 151059068.4 152259633.2 150228047.4 147337977.6 162996111 160188385.1 152568043.4 144980382.5 156126947.4 144819753.4 174396269.4 
151060325.2 154314105.6 164315820.8 150972370.3 145819277.3 144109820.8 158119072.6 152587971.2 153592752.8 172048242.2 139539435.6 168338467.6 158109047.6 147733423.2 165220101.6 146438401.4 149631294 149042556.3 148944934.1 160689221.1 145894553.6 154331009.8 151752345.7 159041668.5 162334397.1 132006353.6 156346090.8 154972779.5 142806556.2 160418257.4 162286660.7 157644243.1 146533000.3 142995492 152711199.4 149056528.5 136296351 157381292.6 147049812.9 164778536.6 
146828995.1 149734721.1 149274732.3 149377000.9 143710511.6 152744942.5 146798884.2 149367122.5 146771878.2 166050332.3 145876634.8 165038033.2 146857296.6 147388499.2 147760516 146980268.1 149212699.3 141708327.7 149917002.4 171379907.3 170624034.8 147365244.9 136536374.2 143291416.2 158693468.5 165447965.7 156573058.2 147421911.5 159286184.4 139730829.9 153731909.7 149979653 160913502.4 160113822.3 161321042.5 155621982.2 148536295.8 163611011.4 153117654.8 152799498.1 
146471984.7 138651257.2 162716802.5 161042636.9 163547356.9 150948950.4 158991372.1 156427965.5 142942118.4 151212858.3 143585575 141357460.7 144942148.8 157415587.6 140496014.9 142574134.9 151782829.3 138259535.9 157181077.8 161148613.9 154298393.3 159456737.5 151370285.3 152889980.6 152250150.3 148612489.1 147724388.5 134026397.1 163755171.6 145345195.5 144675386.3 141153934.2 158399669.6 153533146 140185291.3 133592238.8 140411062.6 141320227.7 146660150.6 171079302 
151040558.3 150607343.6 155009117 142346949.3 145758235.1 150314467 147419392.6 143156105.9 152928836.8 156066895.9 147946650.2 149359426.8 130625348.1 153930053.6 158979931.4 163206645.2 156735721.5 149485482.8 139786326.9 164075002.7 153343338.4 146893998.3 158479687.9 143843479.1 132787774.2 149371690.1 151154420 171982770 130158209.9 149755356.4 150981938.3 136612601.7 152872656.3 147459333.4 149429898.5 160316258 154600753.5 144896175.2 149961293.8 162124314.3 
145224131.8 152470274.7 144894875 158615134.8 142702455.8 158184045.8 145142906.9 159956594.6 152826083.6 152200484.7 162970154.9 150119723.2 159435419.6 148757293 144417343.6 168484680.5 158029175.9 162364487.7 166898630.8 150694992.5 163397522.8 146658511 136803742.4 136942298.1 156177265 175336414.5 157110755.9 144769119.6 142980079.2 154898132.8 159959301.8 147277717.8 139725919.3 140431375.9 150222458.5 148797138.8 154447026.1 146321802 144675023.7 163852277.8 
152082046.2 147154654.3 146351398.1 150240867.8 151501223.9 139348253.3 156730432 135817700.6 151012606.7 152695779.4 154602049.4 139032946.4 149014049 146477819 140303643.8 147226740.8 173053378.9 164890564.3 160670092.7 151199765 128173101.8 158166911.5 157410462.8 152216777.3 156878002.4 155462715.6 164218777.3 155735581.4 138240455 158730966.9 162161388.7 146366978 136603531.7 170847759.6 153959234.8 152090201 155580559.8 169416051.9 147582261.1 155272942.4 
160083079.9 148488638.9 145678443.9 151987721.6 148803203.7 153466675.6 160351310.1 140174703.4 136976486.5 156232801.3 153919611 158902238.6 151765204.4 158852325.6 161310304.3 151745294.5 152127200.4 134427309.4 161509624.3 167336587.5 140320742.6 150358840.2 155084859.9 158586895.8 153502069 144887596 145146463 152657354.4 148118936.6 151576683.3 142812785.2 159765589.6 145258812.9 163340179.4 156199952.8 150680528.3 140929202.6 143369435 160999220.6 149770055 
152780691.6 143498113.6 149136910.1 149222174.5 137256694.5 152964986.6 148221301.5 145000470.2 150555551.4 154990799.5 148489033.1 151603340.2 169552690.7 153202341.9 142261312 134427459.3 150480468.8 157693993.7 141249702.5 158027266.5 137437878 158436723.5 159592694.9 151602278.6 147872065.9 151921255.5 159190265.1 152505321 150568208.1 166615558.3 153912793.9 167541473 165283726 154844411 154343094.9 165916172.4 148592379.9 142008032.8 160198907.1 152835640.5 
156114549.8 146401679.7 149767813.1 149552494.8 157407994.6 148200380.7 161179845 151988542.8 150963910.9 147764803 150721467.3 150638445.7 143723171.6 148695136.6 154210352.4 142125666.4 151606631.9 145762796.8 173248312.2 144339096.7 142735558.4 145847577.1 144457321.2 148781176.6 159590810.9 143303145.6 138123771.7 149762889.8 152379734.6 148757920.3 137205590.8 142603813.9 171567363.9 148744018.3 134468440.1 138645467.3 162221609.3 155663907.2 131518626.9 132137463.7 
159226644.4 138537433.6 143002585.8 153401264.5 139096992.8 173236478.2 159547016.3 160010730.8 149951028.3 137801880.1 150298073.2 155304735.2 149863535 155460224.6 149931914.8 157084202.9 145552849.6 142946966.4 166920093.5 160046594.3 140735094 152316612.8 161409367.5 166445956.6 143850843.4 148448311.6 157060577.6 158804331 139432750.7 161994969.4 146542059.7 152269146 162232365.8 156140317.2 160285173.2 143404367 157933776.1 128547711.6 163181762.7 145363494.7 
166384875.3 142756430.4 155706881.8 152289954.5 150355907.1 154681028.2 142594926.1 152236447.5 150549982.9 145627203.4 152342439.9 157080746.4 154178421.1 153676634.9 157944635.2 146725836 156377364.1 155232266.2 152456026.9 152802567.1 152850178 145399158.6 147910575.9 155836924.7 139411618.2 144886118.9 151809374.5 156688767.7 152479334.7 139675368.6 138769675 142918139.8 137446862.8 155020341.6 142830266.8 136712148.5 148426804.9 161860003.9 146169858.4 142886184.7 
160354879.8 146531648.9 163833479.3 159873905.4 144787159 150274072.2 143167358.5 142168757.4 163389662.7 156791527.2 157679077.7 149381247 170921658.2 154395710.3 146643980.2 148507916 144737901.9 156353116.7 155343255 149227867.4 151241910.5 147733215.4 161233109.4 156075832.2 137832838 157507256.8 142533910 144374510.9 154641137.7 157080826.6 142235567.8 145029737.7 142205877.6 155638876.2 151812728.5 133360521.9 163508758.3 150325531.7 134859074.4 148071894.3 
150999784.2 147118029.8 138433916.7 155077708.9 144472682.8 156935814.7 161053880.7 158116312.5 144829912.2 134429394.1 147903327.2 147856097.7 161103489 162270147.7 151021585.7 150364362.4 163096260.5 139542944 143872621.5 145261548.6 143464267.3 151450595.6 155761477.8 154004375.1 143828672 151434515.3 158631238.7 149162939.7 146503553.9 153645226.9 147177176.3 143426848.1 151567749.1 154489137.9 147372773.6 155566681.2 140632841 142795164.6 134995322.9 159298051.6 
164215407.8 155056927.6 156309223.4 151907039.7 134397292.7 148648103.1 150129395.4 145155993.5 145898897.3 146085699 150060061.2 140399908.5 142001704.8 147179968.3 151910895.2 136279518.4 153404796.4 170551319.2 140885105.1 149123293.5 144420092 153210772.4 150436953.1 155712266.2 160979131.3 158263635.3 154240803.8 148117863.5 154590349.8 146718981.9 150002383.7 141221574.5 165407602 148987670.6 164110394.7 154812435.9 152722830.9 159519113.7 155908411.1 166047352.7 
140628573.3 140210504.9 145267245.6 140782012.3 142013152.9 135278689.4 155518631.4 151918175.7 161087628.6 157419007.3 153135133.1 153999377.1 146259456.8 144766303.2 155033183.9 157610801.4 156673934.1 151422928.4 149026419 137035526.2 151991535.8 149965230.5 158718258.4 144736936.2 143024990.1 153564995.4 162297398.4 154918702.7 146394361.6 145628630 161968671.1 144222858.8 148141331.5 151738672.6 151752844.7 167729273.3 156138914.4 148490658.9 133004275.6 155495389.3 
155199498.2 171827037.9 160536725.4 152628264.3 158945676.6 166793740.9 156308597.1 156531037.1 152913555.7 151328090 151944784.8 156824154 150289925.7 145970818.9 146492615.7 163236015.3 153554084.3 156695481.9 155452941.9 139024008 146661409.3 155603863.6 147909965 162644427.6 152667774.9 148629448.2 150854216.2 146611403.7 145374766.5 153026879.3 148521064.6 160509402.4 141856875.4 152029419.6 138137660.4 158777171 138450250.7 145377042.6 151551932.2 141482401.6 
135825060.8 149888811.6 148595939 151173652.8 139572905.5 144796346.2 154602021.6 135798011 137588864.3 157945938.9 153627648 157919748 156735780.3 137132897.6 138908042.5 165661016.6 169272599.3 161729758.1 144130108.1 168589033.9 152436429.6 145321767.2 153283569.1 151904168.9 151017619.7 142884453.2 154641473.6 150283512.9 154072384.9 155503451.5 149168485 154931113.8 142474362.3 144753952.7 148430077.2 145168084.4 153608845.6 144394897.2 166249724.3 137032704.6 
152877075.3 154802871.5 145848821.2 166575066.8 155257835.2 151832550.1 156139659.4 145875352.6 151443436.8 157968845.8 163769813.4 156729522 145976399.2 144204308.2 136899490.8 152483468.1 143022805.4 145430850.1 145498719.3 149608649.7 156172987.2 164603410.7 131580015.4 152663370.1 170475771.1 157870207.2 143871815.6 148918067.8 142858713.6 149896429.5 138126991 146264233 148112871.2 161923146.6 155876971.5 149169645.5 150682549.3 141571540.7 144346935.1 134836661.6 
# Errors [m2/m2_1570866816.x_y] I_err:
9185863.022 7686789.169 8726067.783 8863758.229 8562683.765 7845202.199 8557058.741 8354996.227 8393955.87 8548814.936 8654733.485 8029719.681 8883692.963 8282136.135 8811852.659 8539643.922 8723706.138 9159341.55 8796801.704 8369758.102 8576932.175 8364902.694 8545787.579 8225571.114 8014522.866 8163019.598 8065034.298 8642499.886 8472130.487 8711551.615 7880534.218 8865879.81 8282722.012 7901902.562 8873670.337 7879185.164 8560202.662 7840611.225 8794947.234 8609830.62 
8571927.184 8391044.631 8437221.946 8219872.891 7969086.373 8335665.9 8784103.121 8506864.565 8528339.583 7972060.862 8326515.856 8319754.468 8788512.762 9330506.686 8088993.193 8248753.482 8264612.466 8741348.364 8341989.465 8859747.103 8363770.17 8676427.604 8444082.941 8176515.184 8651332.482 8611997.666 8256998.53 8773921.984 9805294.867 8887123.29 8517293.102 9150957.766 8473299.607 7857713.482 8466794.254 8834339.071 7913672.087 8518136.321 8372072.032 8528259.363 
8767694.014 8965359.836 8403839.516 8124953.068 8269858.87 8583221.472 8635663.479 8619148.892 8083641.967 8826502.828 8550579.124 8723987.635 9015846.848 8864452.978 8780278.306 8599700.723 7942775.481 8029833.156 8193204.412 9229334.949 7853153.569 8670142.462 8668076.281 8318732.72 7984914.349 9101755.901 7854523.615 8117324.066 8836462.044 8468853.747 8600201.283 8234296.55 8938575.935 8290945.38 7942790.387 8638734.069 9059659.087 8854305.911 8656460.44 8590272.557 
8654477.54 8142996.095 8663392.527 8452883.754 8953697.932 8831887.28 8540985.297 8640844.693 8626505.338 8732684.059 8612992.828 8214418.744 8325092.069 8271868.736 9084038.409 8442953.038 8285602.998 8351784.968 8332658.735 8697167.31 8536869.186 8981125.994 9108969.948 8443121.579 8471432.989 8180745.578 8237269.459 8578610.32 8391738.978 8479156.388 8366781.84 8383388.436 7825457.881 8877786.502 8334396.472 8593000.806 8158827.776 7996691.194 8647052.525 8699376.272 
8611162.562 8584565.932 8715974.36 8355274.675 8752514.532 7878017.899 8407737.011 8298249.608 8450796.438 8552070.453 8399993.283 8331373.603 8820309.824 8277992.044 8569560.641 8261231.022 8821202.79 8351139.053 8544044.706 8889780.517 8209122.136 8171217.275 8298986.153 7826861.49 8336372.155 8248470.562 8189546.705 8630243.106 8501981.702 8196453.138 8771220.325 8073628.325 8410952.292 8890211.776 8786975.009 8270337.684 8256663.352 8419582.596 8142523.258 8590516.768 
8606124.633 8434289.497 8144390.69 8273449.203 8772294.155 8722370.036 8601706.933 8563460.954 8224840.101 8826931.503 8371912.432 9235568.024 8324616.739 9083096.631 8777493.03 8518999.919 8126607.987 9177553.482 7960717.661 8855978.371 8459078.525 8721752.964 8294765.332 8386320.041 8643222.035 8327430.302 8623981.734 8817367.849 8510317.933 8223666.775 8362141.912 8462732.775 8583107.455 8679611.501 8299846.644 8542517.81 8472805.93 8275066.191 8773851.654 8212955.095 
8050996.528 8962519.47 8771427.741 8507850.097 8097656.009 8101215.903 8166775.517 8058462.941 9170776.845 8095386.618 8983851.741 8346098.107 8825406.681 8777133.935 8467015.737 8973509.124 8232474.843 8361143.62 9132574.817 8800744.618 8554358.177 8445228.416 8393866.426 8490537.993 9360834.84 8509123.101 8522476.398 8739705.18 8396276.853 8633554.508 8650384.45 8704793.97 8523108.411 8475294.214 8687160.62 8451054.586 8551888.583 8651431.437 7935376.382 8412172.286 
8561766.077 8353087.966 8297197.901 8699596.598 8067888.944 8459566.682 8648582.664 8381888.55 8573361.322 8770922.553 8263118.665 8923293.049 7954377.922 8432321.633 8356821.191 8763300.616 8780924.537 8108117.297 8568742.804 8665964.661 7994245.106 8904512.439 8345697.678 8277524.945 8279120.752 7911153.572 8213646.598 9115890.139 8975040.42 8205227.535 8126245.946 7996507.758 8332269.207 9052696.435 8277815.33 8248235.614 8909065.365 7556404.556 8052409.168 9377065.881 
8202871.777 9316728.987 7859583.89 7997201.499 8892387.105 8454161.273 8694487.104 8581268.391 8860218.659 8337460.253 8311086.932 8428909.373 8432188.121 8406910.821 8674516.674 8597132.48 8890782.616 9036810.352 8555884.72 8324820.436 8202322.116 8704720.658 8497087.057 8231654.718 8514861.028 8494862.837 8012463.486 9228306.271 8424694.837 8482245.515 7864919.805 8607298.108 8539180.727 7910933.711 8359203.818 7682922.796 8634132.529 9312995.457 8291378.054 8355819.39 
8334703.576 8448459.124 8582439.713 9087314.027 8649677.362 8290884.83 8922590.39 8474902.349 8750437.599 8993647.932 8176091.845 8665254.018 8716008.138 8533659.248 8086310.319 8866982.683 8271627.041 7807016.928 8412319.218 8356840.049 8357842.418 7560901.174 8669398.662 8014825.959 8364427.777 8782261.088 8335192.902 8738079.957 8669432.596 8651891.065 8673954.07 8921176.182 8103602.737 7726862.335 8774296.778 8232110.759 7912480.123 8656838.083 8824835.895 8162121.784 
8455868.768 8427674.113 8940310.025 8323358.841 8456946.906 8705922.448 8277877.915 8746784.358 8499221.564 8533867.98 8344958.277 8259652.301 8816590.032 8818580.136 8886071.337 8112620.115 8585517.06 8757978.522 8081722.502 8604313.608 8095936.343 8190582.346 8274223.739 7853787.543 8891710.218 8257517.764 8600478.482 7952098.028 8875592.034 8096515.032 8687559.227 8957510.422 8141078.741 8300907.804 9096896.299 8560474.048 9009579.913 8293781.393 8523361.261 8829830.443 
9011356.183 8213249.902 8037434.011 8465374.238 8035240.372 8998826.179 8333860.705 8325052.399 8964170.893 8590569.031 8811356.46 9128601.374 8420733.367 8726503.458 8764431.718 8834513.428 8568733.846 8981432.609 8001533.392 8925380.787 9063531.842 8693594.232 9412379.317 8940047.182 8741532.562 8573666.795 8282520.516 8534092.769 8620247.325 9207887.468 8727445.791 7775448.877 8364685.112 8453098.84 8083408.599 8337059.262 8187313.678 7927065.838 8260428.917 8456041.05 
8306360.727 8975560.808 8241404.66 8954852.597 8387583.106 8308550.379 8542338.723 8911091.119 8776095.692 8947926.312 8739162.25 8639210.482 7926110.167 8589445.798 8285616.176 8296901.229 8904171.269 8441411.348 8559516.516 8731628.83 8478930.801 7980957.5 8624149.624 8332653.654 8326252.791 7821086.851 8888461.368 9388014.774 9000420.943 8257876.782 8301914.646 8007990.663 8742888.011 7905744.781 8703703.214 8437980.494 8727426.966 8422126.195 8220531.053 8294452.948 
8178903.543 8265444.808 8840809.9 8640456.9 8892308.566 8926101.262 9330782.605 8043187.35 8667085.134 8126610.367 8264508.712 8418858.683 7941847.021 8813034.643 8484941.885 8392640.546 8651876.136 9012425.626 9039865.939 8965550.934 8513699.651 8034518.404 8946706.611 8176900.919 8215770.77 8268997.493 8498469.772 8386924.054 8643602.976 8149492.529 8418816.989 8557059.563 9241714.463 8575624.471 7768077.852 8590136.498 8568077.86 8513037.666 8528050.794 8674287.068 
8567125.992 8498660.297 8532731.239 8908381.432 8875367.689 9394981.831 8097096.279 8866944.977 8884375.012 8221386.462 8419023.532 9222424.76 8661528.013 8555833.049 8637319.246 8313114.648 8902777.195 8196108.849 8837788.207 8296166.372 8642690.516 8104545.667 8312085.735 8605572.742 8638947.165 8791559.757 8737198.792 8065147.082 8789478.995 8408842.585 8862577.115 7971644.055 8023286.875 9571014.137 8633832.714 7921792.433 9170866.345 8044228.894 8627540.282 8808283.778 
7843576.665 8975797.243 8557031.027 9075960.452 8725514.724 8485852.831 8834338.778 7910773.681 8431875.264 8180264.234 8199077.515 8669316.84 8111830.124 8569063.157 8369221.603 8455225.311 9090637.902 8184730.024 8395154.554 8990301.959 8628837.916 8646398.832 8632317.437 8546655.335 8735592.427 8218906.894 8465244.759 8358956.188 8493649.673 9108240.027 8094369.202 8513981.696 8483881.75 7827418.361 8897640.732 9283384.29 8271904.078 8301122.4 8113638.1 8514906.549 
8474635.629 9181120.079 8384414.361 8164291.899 8311092.584 8569421.965 8596716.72 8125018.002 8244571.822 8676629.501 8782027.317 7817072.704 8529060.947 8768062.608 7932523.115 8422410.756 8239239.742 8933659.497 8146710.991 8106074.407 8748299.038 8442475.534 8116972.296 8284355.764 8212481.636 8252594.676 8073693.842 9164962.923 8225728.808 8242224.524 8777736.728 8806703.913 8199147.713 8651607.621 8854932.622 8999176.405 8666419.608 8466493.586 8552424.745 8301915.964 
8970031.81 8121055.069 8388780.542 7909072.342 8523724.652 8291491.743 8441534.04 8296406.971 8599198.768 8176610.37 8285638.263 8292652.282 8311550.297 8354766.217 8504846.988 8581714.379 8051430.595 8544691.277 8811796.692 8047112.416 8204037.042 8185219.238 8181968.337 8273901.837 8516189.186 8762961.141 8693323.548 8996955.925 9259785.326 8106235.574 7937139.41 8567074.747 8303956.577 8889374.154 8084495.367 8423632.139 8487245.212 9054578.363 8618132.453 7894875.281 
8716230.485 8831962.059 8297739.011 8653809.792 8753575.644 7808012.072 8207547.103 8759387.63 8246370.207 8154061.973 8667083.943 8633838.859 8958497.884 8664159.393 8653751.229 7997235.384 8739347.995 8546821.705 8252800.334 8164886.71 8662570.978 9236731.552 8876881.998 8315617.682 9071775.915 8432940.194 7825699.591 8336353.669 8275391.535 8672987.013 8125687.729 8702754.133 8250323.048 8155899.508 8043971.486 8439000.918 7989656.623 8766954.085 8748275.984 8740155.66 
7827840.665 9340278.745 8191143.266 8705859.885 8152488.591 8945103.223 7592629.187 8611429.46 8560097.951 8569262.582 8201077.382 9059799.661 8470861.387 8507963.958 8460557.882 7782117.957 8716077.558 8501351.141 8383683.931 8435629.715 8319153.597 9254808.865 8256869.397 8370468.828 8862828.02 9152183.718 8338727.154 9010051.15 9004627.807 8361036.264 8251689.371 8599065.607 8233275.977 8856061.323 8265668.697 8109141.928 9124524.221 8524202.575 8722176.012 9256594.034 
8861773.213 8463085.822 8474504.046 9061930.315 8356015.268 9006843.333 8168945.275 8586761.197 8085590.597 8068365.866 8594299.027 8741080.867 8654619.092 8370548.884 9087883.204 8957168.439 8608154.956 8572294.948 8125121.817 9339877.475 8542456.69 8201232.158 8845751.023 8738537.969 8559115.062 8339412.432 7836266.395 8651077.616 8897511.757 8453632.111 8975111.27 8119147.211 8396846.141 7840934.903 8817212.794 8940099.456 8983510.954 8038595.619 8600496.138 8896940.265 
8796815.632 8198057.275 8888803.265 8865600.364 8487422.02 8232058.195 7817795.452 8942396.137 8476863.05 9068695.174 8393129.326 8116698.357 8653892.601 8304167.604 8310413.264 8512178.536 8436675.58 8520280.728 8145110.5 8009290.439 8321713.526 8504027.13 8302453.556 8797092.738 8757651.828 8571337.046 8454264.168 8732198.275 8520685.904 8454344.373 8492507.859 8367145.147 8209990.195 8904760.956 8889370.042 8659652.656 8239987.926 8645555.81 8239880.296 9347666.972 
8327124.297 8677657.075 8937613.859 8517352.203 8397711.965 8119818.688 8757010.383 8340869.311 8660592.815 9149068.035 8115487.135 9103109.083 8695780.025 8531615.286 9242441.287 8216739.384 8378648.473 8421246.839 8342997.294 8879630.235 8002532.686 8506185.739 8500023.112 8788522.538 8731262.174 7564655.989 8678871.309 8689115.823 8139940.892 8701071.848 8729556.88 8837381.551 8428963.826 8121867.971 8426767.877 8595352.718 8059902.142 8747486.8 8075027.346 9045307.588 
8226283.32 8514404.192 8587593.252 8479407.515 8135006.856 8461237.144 8318118.812 8444927.995 8170416.862 8958507.251 8336282.112 9006594.523 8701021.259 8137845.936 8631924.781 8402018.225 8421052.72 7992979.235 8676938.894 9425579.989 9105571.663 8415521.263 8181593.953 8313719.722 8711319.02 9214906.032 8660806.972 8342345.924 8707258.889 8036117.127 8292651.967 8384943.26 8879463.552 8762378.667 8880161.584 8642992.607 8414754.187 8970624.7 8557501.903 8686801.023 
8367858.972 8190144.25 8936784.341 8754406.457 8928240.682 8657291.829 8930486.627 8880310.949 8183722.305 8385290.108 8406516.448 8279656.879 8263671.733 8836279.177 7931014.17 8116462.651 8439194.42 7928255.416 8589764.89 8739805.156 8604879.141 8802477.006 8757414.614 8624768.335 8534358.964 8492578.425 8331953.362 7984833.872 8860113.49 8440291.452 8218867.263 8106898.174 8687035.428 8465132.214 8331614.248 7565943.452 8114400.463 8069387.522 8391133.474 9213403.949 
8570579.029 8526638.879 8599068.406 8346617.145 8169660.548 8469104.958 8385270.312 7969371.977 8560604.027 8666831.99 8376848.236 8283670.77 7774469.768 8615895.575 8752826.067 8792472.387 8868676.202 8418352.334 8205846.333 9114094.228 8612903.392 8242418.042 9014132.594 8452685.011 7683933.206 8517718.921 8760280.617 9095699.221 7812343.596 8500523.953 8420551.545 7882307.52 8748209.083 8400127.524 8492004.887 8857206.564 8526603.072 8237004.556 8321588.875 8981833.428 
8407536.452 8386954.352 8288533.569 8851303.49 8227511.906 8771317.971 8345543.35 9024218.759 8660124.933 8648392.101 9132672.149 8574684.973 8947351.617 8477615.588 8439822.372 9180267.776 8851146.205 8865941.556 8857819.181 8397453.176 8854701.177 8620123.405 7757079.374 7994538.738 8538496.873 9376858.444 8692608.186 8404915.368 8155200.988 8734558.428 8772901.618 8309885.503 7854213.266 7983898.677 8521370.861 8185938.466 8750239.183 8347118.082 8280835.393 8803604.438 
8543661.382 8117718.639 8100560.954 8290572.629 8577305.284 8249956.989 8737548.243 7672180.165 8391450.605 8567086.21 8592014.814 8158721.795 8710580.138 8308488.502 8261268.674 8479872.237 9576242.185 9093050.613 8909887.546 8378099.661 7523659.574 8696661.8 8656111.412 8504602.791 8684801.902 8669672.12 9117226.026 8671145.084 8061747.79 9065416.499 9015749.655 8243131.741 7927948.369 9074518.812 8435083.834 8587449.823 8667577.154 9216811.741 8469428.721 8554039.566 
8771484.51 8330855.712 8447639.119 8801565.601 8240464.474 8913439.647 9003064.504 7906634.667 7896585.057 8858533.715 8583435.569 8722418.07 8531528.871 8740330.695 8895175.229 8525606.693 8222765.587 7776682.302 8910425.212 9237837.787 8133429.258 8489200.044 8839997.002 8882283.078 8545979.846 8409825.491 8353376.678 8398199.064 8261505.681 8363241.613 8216067.684 9030422.283 8182795.389 8706181.876 8806273.818 8464704.05 8167389.453 8171407.621 8850693.002 8640764.322 
8492362.054 8171122.899 8690981.288 8424161.269 7947974.089 8536432.018 8344105.544 8162001.102 8585295.381 8661339.512 8524701.657 8488549.056 9216961.747 8558449.489 7986290.209 8084242.753 8198734.562 8754766.225 8013245.253 8644797.253 8171278.708 8656914.807 8902470.489 8603199.656 8244049.371 8823195.507 8819597.955 8394130.403 8539750.289 9092731.391 8627706.583 9159706.703 9001156.312 8460896.685 8622770.736 8927128.043 8494272.632 8203076.47 8869713.093 8282264.295 
8621410.719 8155675.067 8342259.961 8316193.661 9043186.536 8345127.763 8740266.945 8607872.477 8379196.285 8531272.888 8485887.754 8520943.71 8098677.682 8380397.428 8805879.147 8115687.99 8433363.749 8320692.06 9258625.323 8201928.52 8138106.583 8382551.861 8452234.902 8482868.882 8860832.541 8072440.625 7928878.401 8288718.83 8586441.359 8244851.602 7877953.143 8245110.119 9164236.853 8513316.666 7743204.428 7799731.836 9070171.163 8398822.681 7610915.915 7972509.736 
8977264.264 7939677.008 8242294.045 8473481.638 8129173.607 9108158.152 8834453.639 8705876.769 8437086.192 7896371.889 8557037.276 8421602.799 8436358.346 8640957.906 8602804.41 8696030.401 8475893.404 8226727.279 9014614.057 8742904.455 8114738.828 8717987.239 9001669.469 9270248.001 8213561.491 8365756.769 8674307.653 8751980.644 8240929.011 8827872.074 8315238.055 8244345.094 8862118.138 8787394.778 8626282.325 8074980.05 8697298.696 7541466.869 8798632.51 8233618.944 
8873042.976 8089849.798 8682241.828 8395688.932 8430619.321 8824393.358 8097887.144 8336981.3 8148831.44 8274846.412 8358966.747 9059640.017 8568775.671 8386220.911 9051262.304 8206743.402 8692103.169 8676573.3 8482791.656 8676216.945 8699057.711 8253656.622 8400507.342 8682372.006 8098256.149 8278747.768 8476162.292 8763213.287 8535945.507 8176230.178 8172547.404 8195845.213 8020940.637 8687128.005 8204717.486 7940897.714 8684609.533 8874782.509 8490024.177 8046943.611 
8835611.492 8065660.313 9200919.509 8730902.225 8246295.253 8437308.809 8517987.565 8278582.642 9020852.439 8673428.435 8750120.373 8394590.264 9374358.917 8601516.719 8416779.409 8321835.978 8272998.543 8756377.816 8542746.61 8465654.618 8326437.608 8384963.764 9085409.164 8611352.575 8001014.67 8811448.769 8426855.83 8341844.849 8757804.914 8714492.951 8136654.483 8287037.104 8195448.529 8848846.468 8625380.863 7821551.007 8650398.893 8337621.205 7917131.125 8482400.606 
8631770.371 8456854.061 8025642.684 8773144.283 8309189.214 8490496.343 8879620.893 8721175.109 8371499.852 8138522.42 8559061.334 8578201.102 9000765.286 9035102.353 8289452.665 8401636.117 9076014.75 8047516.25 8092053.507 8235926.873 7998081.265 8399225.004 8574868.415 8543346.524 8436363.887 8693036.681 8442064.071 8575501.536 8301309.591 8495412.563 8475698.731 8132837.125 8379385.435 8720017.732 8463958.052 8677106.888 8160914.668 8197473.544 7816064.301 9027651.013 
9094762.846 8554904.165 8538083.95 8397086.7 7875741 8558288.251 8643824.849 8253551.711 8188357.606 8251744.013 8537631.333 7978189.372 8146666.604 8359109.342 8546873.677 7947951.258 8608272.474 9351645.926 8009617.375 8545776.501 8146711.501 8513721.515 8646074.021 8597005.222 8911227.702 8913014.04 8633924.793 8444111.884 8564099.173 8534624.673 8439960.906 8030687.376 8891849.328 8243313.063 9218882.357 8685875.064 8582818.003 8999865.936 8816711.456 8909425.695 
8122094.998 7910395.947 8258858.368 7984025.501 8141953.217 7952196.871 8809460.926 8706232.824 8787449.786 8726564.091 8603603.892 8672342.162 8293242.358 8482013.033 8786580.505 8498475.283 8784551.206 8465629.093 8315733.646 7609822.156 8533642.635 8356815.851 8831289.979 7993388.538 8187745.867 8594792.265 8771889.784 8680299.372 8375633.359 8224347.887 9067919.471 8386334.612 8304307.983 8511942.699 8675689.504 8969218.07 8740968.366 8459093.048 7759080.181 8615658.096 
8513175.569 9211154.466 8749379.434 8498916.058 8703691.319 9323158.382 8634628.613 8651233.608 8587968.534 8569213.232 8565158.762 8694587.872 8523084.095 8463298.304 8192344.088 8851689.85 8710795.906 8721487.76 8570134.442 7822016.737 8266079.101 8692522.269 8281291.014 8769385.204 8678203.603 8451175.091 8346217.8 8459994.464 8117032.741 8649716.637 8236499.33 8814857.488 8158275.929 8590574.156 7865105.916 8818049.349 8084856.065 8222386.467 8600619.65 7854769.883 
7961496.979 8501311.907 8324972.624 8465298.748 8122067.779 8337659.863 8382078.805 7769193.849 8106007.005 8763081.439 8680025.411 8588387.384 8757804.651 7904141.845 8114580.243 8811808.613 9103136.203 8796179.337 8364499.389 9308745.219 8444512.872 8331119.119 8563397.778 8700015.026 8412623.584 7908320.046 8518544.102 8341409.252 8546020.372 8805772.973 8498656.765 8748376.515 8149701.532 8572919.039 8296280.484 8173373.007 8704145.007 8330607.66 8971274.202 8043421.452 
8421436.642 8700755.858 8092827.035 8956595.335 8638643.827 8227556.269 8490233.699 8111012.193 8352814.982 8771058.903 8974100.973 8517162.675 8305529.812 8312925.117 7909035.12 8461722.368 8366529.918 8429882.35 8383038.745 8659727.793 8656540.944 9038547.791 7907879.017 8541134.82 9035024.461 8746061.084 8142081.617 8467412.017 8093336.14 8486352.676 7893261.157 8111835.294 8334020.485 8765478.058 8619520.137 8484963.354 8273788.261 8004136.977 8366656.552 7809034.277 
# Events [m2/m2_1570866816.x_y] N:
680 621 624 678 668 640 623 670 627 639 605 626 617 579 669 649 616 611 657 603 619 639 664 618 621 614 632 607 627 641 606 636 628 597 622 591 619 603 654 662 
640 628 642 623 594 616 619 617 627 593 608 629 652 643 652 587 640 627 622 588 603 666 646 607 631 636 642 653 700 617 621 696 592 596 640 646 617 666 589 622 
642 671 679 629 610 636 661 644 598 647 666 665 658 639 603 612 632 618 644 641 587 676 619 635 621 661 602 606 655 633 637 601 667 631 577 631 627 595 632 639 
611 612 646 634 646 636 657 626 624 626 620 595 630 654 681 648 605 602 619 636 608 686 640 622 656 616 588 621 643 603 636 639 624 632 584 667 612 601 653 632 
631 663 597 618 646 579 607 597 606 603 607 656 644 617 619 616 663 619 641 611 615 580 632 605 611 585 620 660 587 629 582 600 618 611 659 609 621 642 615 649 
650 617 609 628 639 650 640 635 605 651 592 642 635 622 629 606 628 626 596 636 631 599 586 647 636 625 620 631 631 628 611 621 644 623 622 635 585 646 661 604 
603 634 640 627 577 594 604 584 638 610 619 637 631 640 570 664 644 622 628 670 660 640 631 646 641 619 605 662 628 609 646 632 658 607 651 661 658 616 595 647 
641 635 612 613 616 641 645 624 595 661 624 636 581 622 635 654 643 589 630 628 611 634 657 617 616 608 629 659 584 627 592 587 647 623 640 598 617 591 607 691 
637 675 625 611 640 639 604 660 651 612 600 627 606 615 660 625 649 637 637 643 576 663 592 567 648 589 602 651 621 602 623 623 633 593 602 570 654 660 625 646 
628 598 591 630 598 632 629 628 623 620 578 648 654 604 585 590 591 582 603 648 632 592 621 600 635 604 615 621 626 651 590 625 636 601 637 603 625 633 637 639 
659 653 687 616 637 638 616 636 619 610 608 613 646 602 616 604 636 643 615 631 607 611 596 587 674 626 663 605 640 624 626 623 612 606 656 649 632 625 647 630 
673 632 636 647 615 645 647 617 653 675 607 637 634 631 631 626 628 623 583 645 614 635 687 623 608 634 636 626 634 685 655 585 601 589 610 625 622 628 606 627 
620 667 653 600 638 636 634 656 671 635 650 648 586 621 619 602 654 590 597 640 631 607 640 625 603 623 630 622 646 591 577 629 636 621 643 663 604 632 634 607 
560 627 607 615 637 639 661 609 634 592 620 627 593 593 620 619 636 659 637 627 639 571 610 609 594 669 664 625 610 611 611 657 652 657 582 637 631 625 628 634 
664 614 645 619 675 630 593 628 627 618 617 613 611 595 638 645 618 620 657 659 662 616 623 594 651 601 642 619 677 620 626 606 628 660 643 647 622 579 618 668 
614 658 639 657 637 595 591 609 629 647 588 617 598 607 647 587 639 589 633 610 614 630 595 649 648 610 585 629 644 658 609 624 615 562 639 665 612 598 596 634 
641 632 612 569 609 614 624 544 634 637 627 606 634 638 573 619 643 609 570 653 615 614 584 624 583 623 662 626 588 676 578 622 598 654 644 622 637 627 650 610 
642 631 621 608 620 581 588 623 626 588 631 632 561 619 673 636 622 635 640 606 632 581 591 613 612 631 639 643 646 603 608 610 615 604 591 610 607 647 629 600 
646 619 602 640 635 625 612 650 637 613 701 607 652 597 642 622 616 650 598 610 648 626 640 646 624 615 555 647 593 632 664 618 623 557 592 659 614 637 623 668 
614 620 649 631 625 650 615 637 618 572 636 652 618 656 629 611 619 627 629 605 594 643 585 632 643 641 610 648 630 606 582 611 614 615 635 609 621 660 644 682 
664 631 611 644 639 635 609 626 613 616 668 584 649 622 656 655 569 634 619 666 619 599 624 630 638 629 601 645 669 607 597 623 631 619 688 625 662 620 611 662 
658 592 620 673 637 599 599 634 591 610 577 629 590 595 622 635 616 641 611 614 597 597 604 641 632 651 663 602 625 623 626 612 626 636 623 630 601 625 583 654 
655 623 628 617 617 636 634 640 639 673 610 661 661 611 630 626 635 616 616 642 619 651 628 655 646 610 643 638 635 674 631 640 599 614 649 622 568 633 653 662 
607 623 584 608 601 626 614 618 635 663 613 648 594 648 579 607 585 623 626 666 656 595 581 590 649 642 643 623 675 608 648 636 642 681 644 622 607 664 635 608 
606 581 643 679 640 605 622 621 612 639 580 573 616 619 620 610 636 599 639 663 645 620 603 641 630 604 651 568 676 601 583 594 656 628 571 602 628 616 612 658 
617 620 634 583 623 638 624 636 647 601 610 644 568 613 633 658 627 634 585 655 651 623 611 617 596 602 606 675 571 627 622 600 633 617 628 636 637 586 608 633 
609 651 610 651 583 619 601 623 610 621 641 597 660 616 628 640 625 631 676 644 631 605 614 599 645 681 622 600 615 633 653 621 614 610 617 621 612 607 639 673 
633 632 638 634 638 581 638 599 625 633 634 584 586 628 573 604 664 648 656 647 579 650 642 623 641 635 649 643 590 628 626 624 559 650 642 656 632 665 604 619 
646 612 614 588 641 609 635 602 600 622 633 650 626 633 662 624 669 577 648 649 622 625 630 618 631 595 606 631 647 648 596 636 617 668 619 616 591 585 646 621 
633 613 565 625 602 608 630 648 597 647 612 625 689 617 620 585 641 643 600 646 562 643 635 614 633 607 632 642 611 654 645 651 660 654 619 652 641 612 643 655 
642 623 648 645 603 593 652 598 660 608 626 629 615 627 601 644 621 617 666 587 607 603 588 612 622 596 599 637 634 640 595 600 673 618 609 637 644 676 611 558 
629 611 605 640 585 691 632 675 606 596 607 656 593 633 623 650 579 617 647 639 590 592 631 639 617 636 653 641 576 644 621 658 629 635 694 612 601 596 662 616 
680 630 626 632 613 623 602 656 631 653 636 611 627 650 601 626 639 615 623 601 627 617 624 630 580 607 651 616 624 593 573 589 596 626 605 596 583 622 599 609 
647 643 621 657 639 645 569 621 649 642 654 623 655 645 589 600 609 619 638 592 651 617 647 645 587 628 602 628 627 626 611 613 595 638 626 578 673 650 566 603 
632 588 569 614 601 668 643 611 604 566 599 630 622 630 665 629 629 592 618 635 609 647 627 626 632 602 688 595 608 639 619 628 650 622 620 617 603 610 586 645 
641 649 641 654 575 607 624 618 623 634 606 612 613 643 634 598 630 653 632 614 606 618 601 659 650 625 630 621 642 570 638 614 661 631 619 618 617 634 641 669 
607 622 605 611 607 606 651 621 655 654 632 641 626 619 588 673 623 630 623 612 627 634 619 615 615 626 656 632 608 607 623 612 611 642 606 660 607 625 581 633 
639 686 651 601 630 654 634 630 615 624 609 660 618 617 628 676 602 638 652 598 635 640 631 637 625 633 618 610 633 596 629 645 626 631 639 644 600 638 615 636 
561 606 614 638 600 613 672 609 609 625 614 663 636 630 591 665 689 641 618 622 615 606 630 595 635 635 621 639 610 633 604 627 610 576 620 626 593 596 645 559 
631 629 635 674 632 658 652 624 664 652 639 644 614 590 587 627 604 610 629 615 636 646 550 681 668 647 616 622 602 610 597 665 622 643 645 612 620 609 593 603 
