# Format: McCode with text headers
# URL: http://www.mccode.org
# Creator: McStas 2.6rc1 - Oct. 12, 2019
# Instrument: Test_Sources.instr
# Ncount: 1000000
# Trace: no
# Gravitation: no
# Seed: 1570893941
# Directory: Test_Sources/4
# Param: source=5
# Param: Lmin=1
# Param: Lmax=11
# Date: Sat Oct 12 09:53:37 2019 (1570866817)
# type: array_2d(40, 40)
# Source: Test_Sources (Test_Sources.instr)
# component: m3
# position: 0 0 1
# title:  Intensity Divergence Divergence Monitor (Square) per bin
# Ncount: 1000000
# filename: m3_1570866816.hd_vd
# statistics: X0=-0.00278713; dX=1.66209; Y0=-0.00263575; dY=1.66173;
# signal: Min=2.50382e+06; Max=2.15477e+08; Mean=1.51281e+08;
# values: 2.4205e+11 3.40133e+08 999989
# xvar: Hor.
# yvar: Vert.
# xlabel: Hor. Divergence [deg]
# ylabel: Vert. Divergence [deg]
# zvar: I
# zlabel: Signal per bin
# xylimits: -3.14498 3.14484 -3.14372 3.14427
# variables: I I_err N
# Data [m3/m3_1570866816.hd_vd] I:
3066255.55 9636730.316 24371941.89 24781245.18 26097874 26192592.43 30477906.15 26075589.12 29629620.4 29011415.47 23309570.2 25433538.38 25437266.74 20638986.31 27408556.78 27012656.58 25204610.89 24453455.62 29284217.83 27704357.43 24994055.13 29217446.7 32261336.21 22646733.87 18516839.8 24915439.77 30423425.02 21950522.67 29440038.97 25654287.99 29503202.14 26081801.54 23644067.51 28835997.22 31103143.47 28930371.15 21312676.73 14152994.88 13748648.74 2503820.769 
7682384.815 35415057.89 59158804.2 73668182.19 68565179.26 77055754.26 85283491.84 74902106.31 83796114.68 75786585.69 76008871.17 71789982.71 83998823.39 80019778.44 83295043.53 87398240.45 77712332.77 77059968.53 76161793.01 87758742.82 75156507.53 72655535.55 72962161.16 73042708 76649516.44 67190350.62 81252476.93 76363831.52 79902573.7 69174679.24 74278868.19 75391375.08 72195136.31 66867648.75 70402947.6 73454518.14 70569023.85 54124530.38 32354128.21 9558901.693 
13967662.38 53572860.41 93220131.97 123597392.9 121470310.9 108890451.6 132166599.2 145245953.5 132595545.7 126873944.5 122010771.7 115687684.7 124362677.3 132579313.1 135132312.8 123409986.8 136800239.1 121207435 148505923.5 111106751.2 140543180.3 128214083 132683151.6 123417071.8 114934955.6 129193981.3 135720211.9 142545689 125833141.7 126528285.9 134349842.9 128660785.6 122550769.7 130037624.1 124529963.2 127374556.5 124189479 90258317.69 57720782.05 20699819.36 
35673165.4 81501254.01 121621657.4 155060155.4 165608350 165459238.3 177509170 182027213.9 159536945.8 183565888.5 162132532 174899847.8 157305994.8 196185695.9 194487427.4 178563824.6 162971538.7 164447134.5 174967074.6 189947800.1 177243839.3 176938237.8 170038612.4 161440183.7 179031420.1 178996079.1 178914748.7 172598988 173891079.2 189004131.3 169943199.8 177069179.6 166754335.7 179990922.4 178761794.1 175705667.1 151316854.3 117711859.6 78798750.8 27711949.57 
34929493.22 84182217.87 122224479.8 180594021.8 192384755.7 186403313.8 171947052.7 189677782.9 179481675.7 185180885 177391917.7 183249999.8 198442335.2 188229456.8 183671603.5 180519878.1 194350426.6 172369632.1 171448111.7 181051324.9 191546543.6 197186851 179670337.7 184008233.7 180159835.3 180002998.8 179270810.1 179834235.3 187127373.9 177321969 203534797.2 179071300.1 176907465.1 182345129.8 180113740.1 172092356.6 181674576.7 130682925.7 74503895.13 25333349.54 
27286516.42 78021377.86 127963972.3 175365494.8 194008175.1 176070318.1 184292590.8 190350304.7 178970730.3 184468234.5 160865203.2 184397096.4 204419772.2 184873407.9 192279565.7 185516623.1 179263600 181832627.9 173400734.1 187173266.5 185678249.7 175274554.4 182266234.2 182729549 179949027.9 179052622.7 176269857.9 165289969.2 187244603.8 179453169 172016711.4 178115928.5 185901992.8 190850530.4 177113661.1 182237072.5 160458734.9 117081233.7 71018267.83 27050823.94 
19137427.26 75858196.41 110978856.7 167295362.9 201783926.2 168778798 187358468.8 173964253.3 191200113 177814553 182865950.1 186945864.4 177965903.5 164577966.2 184027080.7 184665214.2 190496532.4 181829453.5 164660374.7 169829840.8 188692806.3 169020479.8 182777737.8 182523726.6 188993376.5 185641443.6 180636407.5 200167269.5 176307461.3 180761984.8 173366240.4 168875054.6 176962686.8 186180893.8 173606366.8 180711493.4 202010608.3 120168720.5 80190128.17 25028470.48 
26916291.51 78528159.45 138979478 174740919.2 188492933.9 183679595.4 175588309.5 170035226 186378973.8 194831888.4 182597851.7 175371706 185505177.9 185514632.9 181137613.8 185789781.9 169108409.7 180582174.6 193209371.6 187990212.3 170709038 182020328.7 187144549.6 193721217 172007644.4 198571546 186759680.4 179508411.2 180824777.8 156546193 175275421 193836110.7 188080622.9 188021720.2 182907474 188454739.1 176189976.8 124024829.6 70093293.26 29416211.72 
18058103.95 80125284.31 123577279.1 189748316.3 183363455.2 189156610 171313237.8 182821738.8 202036236.4 189769326.7 196730982.6 196370824.5 189346714.9 189094934.7 170745789.3 183424537.6 194109152.9 171399540.5 198436969.9 177799455.4 200996969 179810560.5 198310812.7 173110739 167843372.1 184378355.8 176379800.9 182282163.9 173447604.4 187941767.3 179508348.2 188273095.4 177409023.9 172570757.2 188387876 188528461.8 169228689 133904997.8 78917093.01 29194070.01 
26674786.99 78682191.02 118134635.1 184560072.5 187440100.9 188148394.7 185392896.2 171784947.3 181664303.8 194200779.5 172277902.6 170033610.8 173769246 178944205.3 177440402.9 182252357.5 163713023.8 202354493.4 164766389.4 178838976.9 177598758 184049474.9 174030720.7 183153749.8 172944121.7 167627884.2 194606261.1 191573272.8 174900849.7 191862561.8 172072195.6 175018284.2 179599778.7 177727750.2 172314347.3 173941079.3 179465126.8 136495965.3 68345850.53 28908249.67 
21851918.23 76611529.21 124832161.6 169412615.5 190632872.2 179370002.4 190220457.1 193452019.7 182431853.5 182206820.1 172982022.9 180536182.7 180223344.9 184812179.7 190247005 179414837.3 193018480.8 192245216.7 173283880.7 192070584.3 177593884.9 169387097 186606652.5 176908122.1 185578426.1 185960921.1 201473128.2 174221715.3 194773531.1 199030014.6 187097978.6 203462412.3 182354266.9 180272008.4 184406168.6 185228046.4 172889094.6 113388341.6 81625485.62 27129437.95 
26762705.37 79735021.55 128873184.8 160497861.6 189441347.9 182483344.1 180619040.6 192206133.9 185864510.4 180984975.7 175547239.8 194627722.7 189640682.9 176832482 192940734.3 187229623.4 173710408.4 177868602 187349086.4 177366988.8 159982519.4 166726719.4 179784125.2 185951527.3 201386068.6 180636037 158100748.6 178013104.7 180106970.4 181853105.5 181085023.2 187943170.9 178115798.7 175543956 171745493 168609168.7 176706526.3 129999943.4 79183862.24 16684478.29 
26506972.42 86992094.27 130785848.6 182137186.8 185690302.3 180455547.3 179647646.7 183781245.9 179658191.6 175846961.4 182231821.1 180272959.3 180857303.2 176979615.1 194284722.1 188258844.7 184768509.6 178781644.1 197189915.1 189083634 180171560.9 181168345.5 187467323.3 176527559.6 184281688.5 197917731.6 184239664.3 179765858.1 192393425.2 195423257.9 154156454.4 187766657.9 183586551 181129809.1 186118921.1 192523650.4 189317656.9 147588204.9 69125659.3 26619084.31 
24458664.06 68592145.93 128848795.9 171257704.1 188157635.7 189714766.1 182312872.4 181188754.6 197455483.9 200957702.2 195772492.6 188021261.2 200016174.8 172236547.7 196309717.8 176192524.3 192242295.1 180528937.2 185593057.6 179271104 189076937.6 198027204.5 193521716.2 171919447.6 181784783.8 186855747.3 192011218.1 183843677.2 181660021.9 175831674.1 167715724.7 181659377.2 185028073.6 180403968.3 180339421.9 175571544.2 162623497.9 122274535.1 79352716.49 26186215 
23978004.48 73525990.36 121870723.5 154090696.7 184209422.3 198986049.5 193394760.6 188065920.2 174448209.3 180777902.6 182610180.8 178087077.7 182728509.5 180388021.1 166198056.3 173055584.5 180307377.2 188290225.6 178415433.1 184195016.7 189815657.2 193185363.9 170977265.6 189055676.6 169945182.2 173710076.8 191998953.3 184670045.5 165933508.8 190465597.6 194721713.6 182680051.7 184051817.5 202074097.6 172687942.2 187845331.9 183382832.3 111116815.6 72318930.28 30489693.13 
25158726.87 74712711.82 127206923.7 154584282.3 179679678.6 189655495.9 183561836.7 187230440.7 183396796.3 187132531.8 191139592.5 163804928.6 164759265.1 188745639.6 184471209.5 186880853.7 178133685.3 190324875.8 166321852.1 185436097.3 196927029.9 175241832.4 182860010.3 184279800.2 187019220.9 183374351.8 177026628.2 187039856.6 186365711.5 180326138.4 174142999.7 184881831.8 189002799.2 190334203.8 179754606.5 177119008.3 157548999.7 142247549.8 73225961.12 25347606.6 
31477925.51 80921197.5 139162767.8 175480613.2 196421957.7 185869135.6 188473388.4 182212032.5 186671636.3 172282236.3 169410212.9 178748420.6 185434562.1 202125936 169011893.9 177179858 177869393.9 183050689.5 165591385.9 178369918.1 168870030.3 186656719.4 178738939.9 178003960 175697900.2 180871100.9 183898731.2 166420030.4 179898499.6 172689773 174848249.7 183855192.6 181472741 170861664.5 179712240.2 191478957.9 173939571.1 117084854.8 79884525.09 21104181.8 
26429267.9 73915991.33 124509202.5 170893997.6 185814671 185681076.4 170768550.2 186635583.6 165333208.3 179242131.6 197600108.4 170797593 185896357.6 184432909.4 183592759.3 189243441.6 177122496.2 173059904.2 168905820.5 181708899.6 173374819.2 165094409.1 185279811.2 164786554.5 188549109.3 205526339.4 192874915.2 199446438.4 184248632.1 166554045.1 180501820.2 197873046.3 176330731.3 178543561.2 181946505.4 195469971.2 179231354.7 113825035.1 75813387.37 28858082.4 
26114539.57 83033432.9 127825040 179744661.5 181868669.1 170031929 186161343.6 170481947 175684845.3 173573171.3 180236266.7 198074352.7 176099955.7 178013144 182495502.6 188029238.4 186194069.8 180283249.5 176011809.7 182813074.9 180511186.9 181336186.4 187062254.3 199513467.7 193467862.9 156817649.9 178549186.5 187249170.1 179090444.4 186411513.7 179982752.6 187420619.5 175526814 169390037.6 176885865.8 177511710.9 185759556 127882475 68791772.83 31120383.5 
25126219.32 74891392.98 136194738.6 164804764.2 176726442.1 183033060.5 164403202 177619180.1 185153340.5 179654494.3 168518384.6 180085440.4 187208143.2 183697445.8 167931366.4 176957376.4 183581605.9 193608680.4 174251665.9 189514357.2 180308699.7 191547356 185752201 186657034.1 186422617.9 180655987.5 198804856.2 184768021.7 193282113.4 177115219.6 184016571.5 181704965.5 177617171 185209682.1 179130345.1 189631339.3 185734092.6 135117292.4 81080854.87 26872997.57 
28370643.29 82420759.25 129190572.2 171736384.7 200763893.6 177488049.5 188285446 186554994.6 190645236.1 174953182.9 181483515.8 186589674.5 189470086.7 187785114.2 194001945.7 188323070.6 186003005.2 179316822.3 182745528.1 194450179.3 177317817.8 195488341.2 170507186.9 188181508.3 172648876.3 183134125.5 178886782.1 195857352.5 158826550.9 175243510.6 187921055.1 176583266.8 180598616.3 215477156.8 179713221.2 184371352.1 179229948.6 129028477.3 77895220.8 30727473.73 
23410243.53 67610497.26 127121507.7 159895198.9 183196501.3 180120068.3 170270383.8 194123694.8 173544370.7 188576740.8 187643597.6 179489551.3 177920932.9 183609328.9 186590343 173035075.2 157345711.8 167580587 178310367.4 174455594 182178094.2 178790135.7 186317468.4 172872703.7 189404612.4 173421846.6 175855268.9 191020126.2 204112895.6 179946198.4 184323859.4 155474312.6 165605601.3 184604264.6 192113268.3 184278368.6 166518346 118018460.8 72972652.86 32109886.27 
22541809.15 83671461.25 130652258.1 182127696.6 194059760.7 188154086.5 185815182.2 184511842.6 178627896.9 188993612.2 188548174.8 177659731.4 166020728.5 180747749.5 192119582 181799627.1 166537959.6 188388996 195319980.1 188282142.6 197685510.4 178661800.7 174036603.5 193319367.9 184243203.6 171410008.3 189756476.3 168164792 185124662.8 189959068.3 192643410 191709151.9 184709181 181325486.1 191774477.9 183051369.7 178166351.5 138655722.3 78887395.21 30046020.31 
26846837.87 80558128.33 129536679.3 175872518.8 177730884.9 167366336.3 187242901.6 174208852.3 176524782 183825072 164650226.9 186862330 177233641.6 183244952.4 179796611.1 180951719.6 166507609.1 176686590.9 179980673.1 171293997.5 190676521.6 182568501.8 186595731.7 185563102.8 186350752.6 192630953 193884921.1 168013322.7 176513212.5 180837563.5 183065018.2 196565373.8 170571428.1 181369941.9 173178134.2 178324386.8 182855343.5 132055534.9 78943136.79 25318650.26 
23133787.08 74471979.28 126859118.7 185265222.8 195814361.1 180893303.7 177916576.9 172923558.9 178018692.8 192141344.4 185680216.1 182851093.4 184395175.4 185509671.4 187160866.5 191287817.1 185683622.1 197912871.8 184906004.9 183278574.7 189027557.5 198956942.5 159467345.6 172479718.1 194671632.6 169401573.3 183214981.2 169480735 175753708.9 195552075.1 193625080.9 202788284.4 174636281.2 184115871.5 176754555.5 187123447.1 167659490.6 133247187.6 79699878.2 24705207.93 
22234917.97 79287465.01 118080596.2 166011618.7 173134132.5 179163949.9 177285560.2 200650700.2 177885458.5 171529026.8 173653587 187107671 181535390.7 175983876.2 176477486.5 183753884.4 186902451.4 185639588.6 182642591.1 190391540.4 190766412.6 185495026.7 168963365.1 185520770.1 192132555.7 190658709.4 186058936.9 198235290 187040730.3 196226771.8 171914704.2 180960047.6 183428403.8 187772961.9 182324774.3 173972759.9 170042113.4 129979055 77305824.17 27174574.51 
30379636.07 84807400.91 134099051.2 176499472 185982599 176654091.2 185765919 166778966.3 186853149.4 199483928.8 169387382.5 178338929.7 174618689.6 172267782.3 184291455.3 178715560.5 192989529.5 180577434.7 187417478.1 202216395.4 183069662.9 176987234.5 170614401 190891352.5 186323546.5 186898159.6 181222070.2 185202582.9 172152393.9 191320467.6 182923524.2 180068578.2 170718355.5 181890876.5 181446550.3 187386453.5 181274491.4 142238553.8 78988343.27 25172114.5 
25957894.03 76745502.14 122130041.9 165967607.8 153524025.1 181609645.5 180773343.4 188566597.4 169261472.2 181980955.4 195787627.7 170024876.8 196179082.8 188618029.9 187966468.1 177447067.5 177753121.9 191537400 179832793 180823818.7 189342021.7 190134550.6 183253654.2 181385086.7 181149196.8 186066798.1 187148332.1 178706104.5 183924129.1 190711124.4 190266600.4 171722256.1 170908148.3 190881057.6 181541991 169445210.7 189373855.9 121792958.9 77445321.57 27589494.69 
30575776.24 75959478.52 128533959.5 173255050.7 156021390 190705342.4 180100437 185381212.4 180433453.6 194507363 189294842.3 182713684 187236534.3 171917624.3 178201641 168166891.3 170640736.3 181605954 171851367.8 187401167.7 179753316.1 178288333.8 177142185.9 181073771 182825846.2 190882351.9 167621731.9 170588780.3 173779428.7 181321427.6 179093380.4 192684912.5 183159018.9 198496398.1 182145485.1 172789986.4 175551717.4 128389681.7 73601892.29 26037976.56 
26120017.25 73888374.26 119274943.6 173875501.1 187720046.8 182126046.2 186506582.5 178148636.3 180699801.1 191898016.4 183930538.3 197418713.1 170623129 193316921.1 197898674.4 189881790.3 183308332.6 190597341.3 173805411.2 173080650.4 170266779.8 183198924.2 185748535.8 183284516.5 187779157.1 182894034 188036166.8 186013783.3 180690479.6 183288869.3 181688420.2 186293407.1 183925371.5 190135469.8 172493645.3 166923069 170653460.1 124724016.8 76641843.56 23083201.08 
28361062.19 77197391.06 131141449 182807666.6 182922998.4 194583061.8 180774546.9 184359993.1 172184018.3 173863772.5 192260161.5 176209554.6 168587343.7 176780705.7 172403411.4 178889477.5 177719544.3 192055353.9 191887119.8 178723643.2 193925048.8 162217952.1 174441372 164794683.7 174319588.2 181932234.2 172331786.2 185849341.8 179717052.3 167676579.6 174769552.9 177511580.2 175081252.2 184976217.1 166826361 175745429.3 169375165.4 123824663.5 72168648.67 25131164.55 
29306178.41 84826318.1 133849305.5 178352435 164393212.7 187155753.7 176000780.2 176848403.9 177946284.1 181412028.7 190485076.6 175111151.4 173952991.7 200759115.1 183755035.7 182637406.4 181026175.5 183159387.7 187869607.3 186768170.2 194657424.4 208393364.3 178231025.8 170019678.1 192139834.3 186170677.2 187386978.5 193712334 180587822.5 182536206.8 191862025 180401281.4 200085313.3 179387757.2 186346867.2 189754480.6 162270208 134968601.7 68235949.3 22043530.37 
30500347.54 86148048.41 136897772.5 172909807.9 176129400.1 185024478.6 191906589.2 186931785 178416159.1 180116024.6 186482051.2 183617926.6 177495707.8 187112282.3 172629312.2 192814676.1 178371519.7 201257458.5 198887339.6 174816086.7 184391954.6 180997660 188288312.2 185294909.8 176296157 174447932.3 189834533.4 177967124.5 182067587.9 173443916.9 182377389.4 169648290.6 171001258.8 193022903.1 177275141.1 187979944.3 167349423.6 122081348.9 68846286.51 24702696.59 
25512616.39 77993770.77 120392435.8 181366886.5 184956582.8 178591242.8 166141626.2 177724102.7 189501607.8 180258089.3 185050702.5 188555602.5 181889502.4 193956914.3 189782665.9 193399029.2 177271734.8 171152602.7 155810728.8 177615732.3 194694483.6 194101845.7 176242961.9 187135015.5 176013043.4 187827935.9 174786007.5 172921051.8 170944128.9 175436772.8 178936954.4 171508974.3 173749326.5 185366646.3 190900174.4 164257395.5 178778299 133446337.1 83671443.71 28709226.1 
32358757.57 61789732.49 134711186.3 180522102.5 170131387.2 194368374.1 173346217.3 187184227.4 180983981.2 194008226 186328093.8 170425626.9 196138190.6 173164547.9 192502984.6 190365766.5 184977827.7 191196219.3 179485295.7 161873344.5 178606804.1 184612730.3 170783909.4 187304640.4 190679292.3 179974688.7 196879717.8 172077661.1 181435427.1 184208901.4 189335162.6 185887420 184297402.2 179924226.3 184051425.9 168432667 169500695.9 132882732.9 78397395.11 28566990.48 
23923217.84 85333028.43 122122159.6 189412671.4 179366060.3 177152169.5 191587810.9 175592044.1 163300210 185145229.7 181606874.8 184448018.2 176428371.7 182954174.6 158969214.4 180337072.2 184004406 193034665.9 177888068.5 182041719.1 175079128.7 178159707.2 177963466.9 183657788 195124573.5 177142522.8 184074780.8 173351795.6 187237939.9 175591298.1 177256489.8 174441447.8 184948317.2 183263838.8 172990106.6 179541380.6 188260082.4 112306861.7 78101949.75 24479642.88 
29745702.01 67143231.18 120400617.8 152152089.3 172996196.5 177578140.8 166172336.5 157631632.2 182706567.1 188844029.4 169279474.3 186897445.9 193664088 170541135.5 147049780.6 179259734 177405319 176451348.6 180458848.8 169988191.5 174777962.3 180709829.8 168252077.4 179352344.2 202991963 179318648.8 178016390.9 164029905.9 177601259.2 164721203.1 177541956.2 172129438.1 172093756.1 171450955.6 167263092.9 183391561.8 153874007 110854672.3 63951420.49 21193903.72 
18007613.01 59613347.52 85166565.33 125800351.1 131500256.3 132128992.6 123753140.2 115016139.9 122227229.6 116334357.3 119805376.4 118624619.6 140550999.9 122354150.8 129760198.5 120667942.1 138483026.8 139581145.2 128878984.8 139790230.3 120061844.9 127243189.2 113253424.3 119286726.9 142820702.8 141223283.2 124588402.3 121366942.3 119272160.4 119248004.5 117066579.4 116651855.2 140555586.1 127852240.1 126896062.7 125179492 119365170.1 83933263.98 48856148.34 17747957.93 
12205189.68 29836779.62 50036542.62 73359691.55 67714350.6 77922082.82 77226804.27 71788124.34 77143090.44 70157453.48 84252986.51 76173134.48 88223926.18 75142871.39 68426761.35 74642064.96 88520538.1 71779509.17 67213132.17 79891959.97 81847454.94 79418295.94 75085467.92 78650071.64 72605433.22 78467746.68 75504599.39 89716779.27 70988969.76 76234410.69 72439091.81 75961110.71 75083747.73 84170252.05 72984650.9 75088253.39 60144320.35 46708005.57 31399973.69 12338137.67 
3901558.976 11817137.59 21601737.36 26257630.34 29051607.86 28121130.36 30828924.8 22203000.57 28040123.91 26144848.12 28417300.65 26952141.09 27085516.51 29804343.43 25009559.87 21747857.8 26368263.77 24911384.55 25061101.33 23302611.25 21891769.27 23642732.72 32465614.15 26087448.89 20389552.43 20741491.7 20886948.17 30186387.87 30186287.15 28888396.96 28790379.12 26733262.13 27861504.51 21395119.63 34324221.3 28823270.81 28453357.86 17847458.73 11846379.6 4038556.161 
# Errors [m3/m3_1570866816.hd_vd] I_err:
1046933.244 2183758.023 3513400.351 3615862.187 3726460.123 3442659.109 3592021.923 3635438.467 3550977.213 3778549.201 3215607.706 3269999.18 3367397.031 2984144.173 3699109.554 3498705.179 3453985.9 3485338.652 3996016.006 3765425.323 3376529.451 3832577.977 3962325.604 2929186.432 2733238.969 3325447.909 3898654.196 3204728.247 3922566.182 3438886.727 3844446.269 3309672.319 3043232.068 3726864.758 3878603.006 3733523.82 3239673.33 2540002.104 2533783.886 1207764.018 
1676057.722 4332698.8 5397696.962 5932021.001 5799011.899 5978713.022 6558238.145 5868350.65 6620631.751 5879595.31 5969215.487 5906773.136 6349292.369 6240558.761 6538692.216 6536183.749 6168569.862 5983044.86 6080682.933 6539393.293 5989739.65 5800286.358 5946161.746 5849236.988 6031475.515 5461209.179 6314652.63 5945507.485 6198378.407 5336656.621 5902550.201 5923508.734 5399500.378 5478943.343 5814859.438 5887168.882 5800964.43 4949977.9 4089051.326 2185389.892 
2364480.421 5199713.18 6656861.593 7632276.547 7254124.423 6922993.614 7704117.619 8547608.533 8101860.965 7923756.992 7635208.234 7425805.664 7501356.449 8140657.391 8075276.053 7621812.116 8150422.597 7583781.932 8611417.854 7327224.22 8288136.539 7869363.904 8138897.642 7750214.562 7397135.537 7888432.806 8139336.503 8512677.864 7769901.458 8065305.634 8333888.867 7930751.66 7681224.595 7856850.118 7641444.628 7833883.441 7850354.108 6513945.06 5175821.697 3378220.096 
4307627.956 6297789.552 7682916.285 8492688.622 8521586.688 8829183.368 9211366.031 9349784.639 8533707.147 9283952.709 8771164.406 9084158.06 8448950.639 9799834.301 9542935.347 9382090.66 8802761.283 8815777.937 9155558.366 9632252.773 9319497.261 9062158.572 8671138.316 8523697.061 9213052.398 9389301.769 9224807.371 8889846.436 8979463.035 9861848.044 8998567.029 9276010.376 8772589.33 9196270.082 9225374.246 9199984.406 8328921.302 7599647.207 6430416.708 3754246.701 
4369856.809 6397848.614 7713161.752 9184407.224 9736162.109 9511268.54 8813842.506 9656351.047 9201309.197 9397338.86 9080087.706 9380991.333 9808927.908 9507556.741 9306124.14 9387568.595 9810176.315 9068472.504 8782975.282 9285561.995 9615081.571 10055889.42 9205153.333 9222307.981 9002878.016 8958598.184 8980763.306 9128499.463 9450369.339 9028666.269 9903113.292 9238932.281 8975665.187 9369907.948 9311911.167 8931698.989 9473511.798 7765501.04 5896849.988 3310925.184 
3673080.168 6157322.202 7601827.528 9155435.189 9763757.246 8856027.214 9212172.618 9636507.044 9113016.632 9502788.333 8583328.543 9325200.266 9930824.903 9304570.619 9688825.325 9404134.562 9147796.341 9065570.063 9091271.89 9571127.54 9095659.124 8995184.18 9359776.908 9278974.516 9198144.648 9416703.446 9117972.642 8690525.259 9477429.171 9118319.746 9036236.475 9259179.657 9494125.85 9532304.976 9215709.091 9290591.502 8718146.136 7322940.939 5747225.906 3493396.191 
2932248.788 6179241.556 7078115.554 8674151.534 9911280.367 8802196.547 9668226.429 9067907.255 9752073.629 9104060.052 9609002.692 9384412.871 9317160.533 8752654.464 9598238.8 9344973.252 9699660.127 9434793.617 8595114.991 8944903.831 9646320.854 8951491.096 9244172.962 9143558.77 9448188.215 9313926.778 9417868.422 9971423.708 9407608.159 9271749.333 9015129.848 8871246.979 9263747.692 9563745.843 9077746.049 9123433.802 9847439.841 7511629.242 6113276.538 3370732.846 
3566207.314 6045485.932 8291378.882 9021779.047 9532980.042 9375208.854 9073841.615 8941218.327 9563601.414 9851348.278 9117790.945 9187637.711 9456155.025 9563622.982 9410062.419 9670206.633 8929415.541 9439660.921 9857449.267 9555989.031 8820981.574 9355004.059 9685294.053 9851493.254 8904281.477 9852646.048 9620803.096 9280029.039 9333314.91 8531833.583 9101654.622 9703504.279 9457688.976 9543184.886 9134872.826 9473560.827 8960829.001 7647045.898 5642470.433 3793752.384 
2549816.384 6060531.944 7612004.723 9471659.849 9294021.752 9618040.101 8905123.549 9289324.361 9819833.903 9673499.294 9966901.37 9960323.707 9607668.835 9650368.984 8803698.12 9230939.254 9589241.992 8925956.876 9830673.04 9260372.86 9884019.518 9115502.603 9712011.397 9077907.713 8896445.743 9411905.92 9382164.513 9193139.501 9039644.571 9559827.59 8948409.514 9546696.637 9222705.325 9002030.894 9624586.03 9474251.374 8940862.411 7951031.046 6168548.873 3924784.932 
3516528.45 6189235.814 7300914.526 9376840.954 9470342.223 9641190.716 9537533.259 9154327.035 9201922.106 9715087.57 9067439.303 9096139.612 9189979.459 9383173.237 9099904.252 9511679.403 8557459.584 9795225.355 8862881.195 9081851.465 9340643.478 9512469.814 8858567.605 9390614.042 8889879.258 8928510.191 9654958.332 9498278.31 8963798.292 9742559.083 8913954.12 8959614.7 9144114.366 9092376.39 8683226.132 9081773.631 9236869.542 8266297.363 5685721.246 3470186.961 
2931914.035 5985001.415 7783936.242 8871088.258 9786171.344 8972167.651 9730985.065 9596549.404 9170367.508 9284686.149 9051773.183 9475265.036 9175163.944 9555123.914 9541700.972 9153644.252 9591397.628 9682160.278 8971670.869 9682423.943 9084406.612 8717266.84 9567232.942 9148338.004 9330264.669 9640713.589 10055159.24 9111104.023 9895145.53 9795759.707 9717212.069 10011551.48 9366377.699 9233767.348 9493160.281 9667952.535 9220001.855 7146805.056 6249128.173 3599474.155 
3703580.173 6205513.022 7807541.992 8565202.166 9387600.595 9530177.34 9207621.338 9541916.441 9482215.737 9427893.356 8955856.689 9806321.322 9803623.408 9163750.516 9787719.149 9523360.321 9055729.626 9193024.309 9430469.147 9207312.179 8641897.474 8757794.787 9274103.213 9385007.62 10058516.44 9252039.402 8763910.65 9137306.692 9173830.064 9262993.648 9236107.508 9471257.573 9123556.271 9007929.877 9167394.106 8717643.202 9007850.285 7749192.731 6074965.195 2500767.514 
3503175.627 6389456.256 7786947.24 9466225.199 9291770.468 9383296.057 9330601.086 9355563.997 9284936.712 9095440.006 9285120.652 9347355.132 9205113.893 9243288.245 9599094.298 9575645.519 9434904.943 9139273.864 9946940.636 9727877.675 9311830.682 9440073.059 9539661.12 9017605.643 9421940.516 9640201.715 9450376.003 9195190.827 9703020.738 9935732.239 8253921.343 9667608.109 9322005.654 9124774.049 9476629.663 9660665.994 9597065.493 8519346.051 5633580.425 3793111.24 
3477157.071 5635352.483 7806361.698 8860903.827 9461156.317 9608612.335 9335010.362 9233978.574 9926080.819 10205563.49 9846410.395 9629014.688 10034681.68 9275088.162 9714500.665 9279280.613 9715120.939 9245361.26 9445333.272 9251050.615 9645335.835 9954334.362 9827611.721 9107715.688 9229654.243 9252131.932 9597052.804 9619268.87 9368599.815 9043513.064 8914745.364 9215518.956 9438626.798 9091486.786 9176140.011 9185527.452 8899507.47 7572388.735 6440871.577 3495524.826 
3344860.036 5837618.459 7835705.288 8389202.817 9245706.368 10024611.41 9584524.549 9843115.446 9158809.031 9315530.675 9300559.821 9245377.81 9506239.523 9427118.884 9094776.248 9131651.98 9096087.681 9451062.126 9361836.676 9554871.668 9767302.609 9729130.236 8845242.818 9453630.151 8732106.819 9082502.79 9500524.556 9467667.465 8760409.504 9739381.378 9682859.175 9198067.825 9526118.281 9976941.971 8959355.824 9586921.373 9465985.868 7021135.772 5683961.694 4017518.814 
3441537.395 5948422.28 7969535.554 8561192.047 9171183.447 9581591.499 9306860.593 9599688.048 9489223.993 9483028.244 9684704.524 8708426.545 8844377.642 9454155.2 9362192.918 9486375.864 9314779.957 9659568.729 8678874.806 9409837.155 10140905.1 9144127.975 9339917.59 9674780.523 9391283.741 9229410.909 9226231.372 9367445.437 9622338.905 9266961.3 8997787.194 9406023.698 9698093.354 9740907.71 9342240.345 9127837.26 8472167.272 8714286.194 5605769.999 3336720.741 
3904411.891 6271415.491 8196614.848 9022214.975 9803387.136 9549345.557 9670421.087 9468857.14 9394247.894 9009008.173 8868612.236 9118732.781 9518367.712 9896350.943 8833345.847 9095747.021 9003264.146 9402185.617 8627405.987 9136292.519 8826797.155 9265461.286 9203251.907 9326462.757 9114045.645 9087317.303 9464947.972 8997420.057 9055695.795 9020392.964 9031437.336 9368001.517 9509646.987 8903882.374 9499747.858 9681386.858 9015508.608 7598591.699 6361750.706 3036724.454 
3582085.893 5955431.275 7692667.82 8983711.794 9611053.659 9212788.58 8979587.713 9593991.851 8940407.448 9153524.63 9740642.971 8881193.195 9427904.061 9433995.067 9420447.169 9463472.804 9361511.668 9008327.573 8995136.138 9439819.945 8930781.985 8854782.468 9603465.507 8743831.015 9750466.511 9876147.954 9742271.426 9786344.242 9555059.619 8991670.546 9237771.721 10087368.87 9004639.824 9308211.154 9232262.984 9801344.018 9343991.439 7270641.709 5888446.787 3576409.161 
3301297.003 6178131.58 7887755.334 9608598.899 9350166.061 8809138.611 9595601.844 8891410.849 9102188.417 8785062.55 9397646.211 10094166.27 9259714.723 8976853.54 9256025.35 9435490.554 9431303.332 9072655.69 9314524.127 9515533.35 9536573.161 9329183.089 9429987.242 10174814.3 9663980.94 8592781.477 9041544.86 9489820.173 9283349.032 9445405.156 9139317.425 9567488.333 9274031.067 8913910.603 9018923.962 9080784.681 9754273.129 7663750.956 5545636.853 3945114.216 
3347175.999 5939211.823 8261229.009 8770941.163 9164601.807 9373048.046 8881372.23 8962957.422 9530510.195 9131488.441 8912536.427 9212164.738 9489145.508 9268496.124 8971565.447 9216428.65 9195897.551 9785527.581 9186662.659 9669463.461 9604105.504 9527585.938 9560689.657 9494103.555 9759200.127 9224527.872 9934100.892 9494379.836 9481416.223 9265361.381 9274563.102 9314412.598 8970935.397 9495346.304 9201902.129 9392769.383 9365197.316 8200880.088 6183543.092 3819025.607 
3818893.648 6607711.681 7766094.325 9020162.64 9997520.35 9115975.592 9528221.393 9518531.497 9760308.285 9102931.781 9544385.34 9485995.43 9455127.513 9523353.704 9572194.152 9724472.906 9490473.42 9164081.907 9363223.371 9640465.319 9206941.321 9824759.346 9099691.841 9388562.06 9050864.118 9195849.602 9207938.652 10007313.37 8395978.384 9224420.221 9577802.112 9145894.036 9099702.495 10484157.92 9154772.649 9336792.233 9268963.359 7894684.43 6439718.828 3885413.29 
3131020.965 5710312.814 8039898.161 8481486.002 9500558.051 9354553.975 8907256.981 9659212.022 8889272.682 9693251.948 9508083.473 9101714.152 9338991.864 9417940.311 9637967.129 9065427.965 8473590.749 8758126.552 9065484.516 9055624.652 9401499.817 9234672.418 9392681.32 9062979.757 9562465.767 8812447.124 9226562.504 9662497.762 9884788.42 9234326.076 9541495.532 8202602.045 8596532.006 9364119.538 9995231.722 9282736.401 8906303.873 7541785.191 5848934.56 4083441.439 
3009614.789 6492747.681 7853433.092 9359259.52 9918204.638 9390690.539 9267394.537 9376257.894 9208987.983 9562231.273 9554022.352 9186652.199 8826632.231 9359478.177 9826734.758 9237065.485 8712173.671 9367303.081 9681784.688 9368606.336 9879158.478 9245216.013 8897641.908 9561205.777 9569462.152 9023818.83 9745314.158 8697537.191 9362315.935 9647325.868 9840762.554 9535134.873 9320618.89 9241263.116 9579388.708 9283824.696 9393617.225 8243377.672 6337973.468 3743301.132 
3497746.272 6040922.134 8076210.053 8926572.01 9155073.947 8972966.438 9584079.867 8945175.849 9268192.099 9603317.864 8537898.279 9591176.797 9052111.523 9620689.763 9363238.26 9445724.44 8889922.891 9249578.29 9189790.875 8917279.821 9748405.466 9576571.624 9599059.878 9485146.015 9476620.725 9637062.091 9873054.567 8950901.155 8930334.633 9222072.653 9272166.168 9997070.178 8808871.081 8954793.197 9167708.848 9419940.625 9356547.436 7947648.148 6037977.919 3461758.82 
3407277.639 5891551.418 7951479.205 9594972.504 10022399.51 9107805.424 9202614.732 9070990.345 9356805.352 9515730.611 9180040.512 9375431.529 9288244.502 9435477.715 9671633.137 9837179.147 9336677.454 9929032.207 9201041.969 9502069.674 9476361.544 9981402.367 8536102.805 9025719.08 9674208.044 8864048.172 9457453.34 9056980.708 8954493.449 9694923.457 9675671.951 10012393.22 9066217.66 9216874.384 9078557.769 9351739.79 9085153.132 8167679.118 6195247.611 2954656.387 
3222836.232 6194402.11 7351273.362 8793980.529 9101189.953 9208413.812 9025408.844 9972245.562 9151259.722 8935144.554 9023743.388 9754607.142 9431229.894 9275587.593 9206764.194 9568158.893 9448940.706 9265584.381 9448446.851 9407270.781 9517971.859 9375197.336 9006365.307 9432951.942 9631339.583 9749103.085 9473977.969 10067376.15 9416809.633 9914819.058 8984208.167 9299614.617 9367476.267 9553924.807 9296224.903 9027123.429 9192869.143 7806206.407 5995860.525 3664489.574 
3927655.711 6515818.724 7919950.657 9063361.352 9374708.113 9230552.792 9449359.431 9081703.478 9311833.498 9944272.317 8776984.176 9116174.917 9172634.423 9030052.013 9495972.327 9087916.501 9909828.959 9395504.876 9485051.257 9951813.325 9445529.723 9418023.638 9122804.683 9566288.196 9614096.247 9518939.71 9495582.111 9468919.235 8926180.639 9716312.834 9225546.414 9203407.461 9007818.559 9083841.123 9236606.143 9535535.41 9454705.985 8269736.921 6168946.062 3550623.662 
3143473.279 6166148.504 7536637.061 9015332.973 8249166.504 9181647.115 9370426.487 9543675.476 8696182.141 9350948.423 9850654.858 9040989.58 10078866.93 9312271.187 9486367.054 9333305.505 9195691.823 9579302.662 9531077.217 9246336.271 9503014.993 9584185.841 9343787.976 9380630.723 9024840.136 9525991.266 9442576.259 9252820.49 9227781.852 9606532.917 9524379.866 8933645.474 8926116.884 9257543.221 9310001.126 8809447.131 9814788.227 7826755.924 6091893.288 3527031.412 
4176895.647 6073192.374 7899198.425 9153782.254 8385121.754 9792909.442 9276989.839 9256692.338 9227928.255 9699437.249 9715216.051 9175000.385 9687707.679 9158461.177 9103103.683 8871453.446 8838914.844 9200147.653 9040542.019 9327343.153 9249079.22 9275489.707 9229671.31 9516022.443 9199977.103 9587881.119 8808232.412 8851270.273 9030256.636 9548914.507 9512844.63 9664002.616 9303683.105 9784715.214 9289791.209 9059280.739 9223108.922 7803452.482 5779917.169 3455489.433 
3679900.141 5843435.905 7444804.258 9123769.772 9532577.541 9476606.415 9483699.338 9309113.186 9087954.516 9865353.304 9239909.806 9788305.248 9025194.442 9523590.597 9862665.51 9937815.973 9463506.86 9331847.622 9175570.725 8849196.815 8868439.856 9474588.961 9412435.225 9462813.092 9639114.162 9552746.589 9592189.43 9534355.894 9399040.886 9525973.978 9420491.754 9254661.544 9315282.926 9666909.89 8957002.062 8518940.705 9024278.432 7747858.958 6155605.928 2928186.257 
3536730.232 5975023.907 7817390.018 9427683.246 9203110.767 9839987.884 9472019.424 9486487.365 9046628.3 8908048.127 9673749.521 9337214.985 8693391.23 9153673.401 8754433.187 9258036.251 9097572.547 9604559.136 9731372.333 9134498.066 9720325.677 8745135.852 9260559.018 8716731.712 9036956.583 9207834.567 9234202.914 9286306.902 9217282.155 8839589.443 8955089.162 9215098.739 9203198.01 9365302.421 8658444.197 8938830.239 9058311.203 7702606.838 5919916.527 3362939.883 
3894451.18 6536639.949 7962289.521 9333990.252 8594174.787 9719541.418 9098073.263 9201694.388 9117981.663 9412018.336 9808175.264 8939425.755 8949067.057 9975190.971 9510010.154 9431263.188 9255876.499 9440727.336 9668431.183 9733141.474 9604817.589 10204520.77 9312641.113 9062635.159 9658226.013 9615023.516 9531929.628 9692147.432 9063051.165 9257302.337 9789599.411 9113092.439 10060223.64 9285878.395 9561189.186 9575149.265 8472193.459 8053502.647 5693373.354 3212522.924 
4081332.368 6375186.332 8151966.62 9006912.993 8969535.558 9370922.838 9502156.287 9531363.72 9248514.753 9183389.767 9513488.323 9241814.732 9308410.352 9221778.875 9248489.284 9553141.753 9381505.89 10167347.44 9801409.157 9006751.765 9402311.383 9145413.871 9482059.84 9509600.358 9017885.448 9065816.589 9566825.759 9142333.145 9540927.33 9089998.948 9276563.07 8856620.417 8853664.801 9762420.052 9128418.551 9604846.051 8686839.141 7683075.106 5542728.131 3449656.435 
3470378.65 6180169.63 7525078.441 9464518.528 9231619.091 9073553.069 8827552.674 9109504.213 9823212.324 9341215.717 9401381.656 9712625.309 9552590.287 9785279.767 9711631.547 9719420.845 9068068.134 8648225.727 8460156.898 9146090.258 9736022 9722232.816 8958591.007 9639318.543 9129452.999 9427592.313 8878376.132 8955716.015 9052725.124 9054396.5 9337128.603 9175312.536 9166637.689 9611242.589 9572125.652 8734907.847 9322808.049 8105831.863 6608021.681 3832571.532 
3901942.331 5283034.182 7878928.814 9367318.782 9032392.638 9617332.731 8900242.191 9590835.117 9524009.176 9651587.881 9541360.871 8908991.568 9957579.261 9240241.427 9659803.803 9574518.25 9404877.722 9638301.103 9382593.987 8546858.433 9060307.881 9320280.622 8862725.331 9561699.374 9786229.608 9376589.256 9901385.551 8996121.167 9182257.388 9501748.914 9400860.284 9478664.697 9236861.149 9317218.282 9438426.024 8809312.966 9109609.15 8180382.611 6023536.507 3906655.876 
3377113.666 6606960.828 7510134.875 9494501.395 9213778.35 9291719.785 9755593.987 9138620.421 8669877.835 9317720.152 9201719.537 9357518.98 9246194.911 9363180.968 8500490.365 9324527.089 9462760.236 9626380.675 9213662.339 9200292.135 8972204.118 9044840.368 9341377.335 9320858.37 9729487.443 9174725.117 9111797.66 8992609.691 9438521.38 9339649.884 8991996.562 8997093.716 9330961.325 9642267.241 9127578.16 9185510.82 9535019.262 7052751.342 6126472.147 3379484.533 
3979320.165 5432890.001 7583998.925 8297649.051 9045882.97 9207001.837 8751617.627 8654046.243 9305688.765 9569887.093 8936985.375 9543898.721 9616627.418 8861120.475 8207968.026 9271744.158 9204764.11 9214213.178 9336372.076 8956394.663 8966395.72 9323940.331 8900812.152 9183090.991 9723646.75 9208019 9403702.331 8872486.338 9206672.392 8904562.271 9250698.068 9026869.709 8916930.558 9087310.247 8923129.437 9299844.761 8371881.748 6951536.749 5490102.622 3116962.292 
2960516.881 5511061.552 6266182.983 7770676.406 8089660.646 7974691.53 7484572.375 7260469.783 7509553.711 7411517.196 7392700.922 7564789.521 8516728.264 7419873.186 7891377.561 7450983.144 8313186.425 8139517.326 7990934.672 8410411.448 7439959.583 7885040.626 7208087.21 7512676.115 8440377.354 8432966.568 7535718.92 7531246.13 7431316.457 7341797.05 7272101.698 7499486.003 8389503.392 7681937.944 7902617.971 7786102.559 7677733.747 6439177.171 4914860.441 2920966.23 
2357432.545 3892242.316 4652894.241 5799806.821 5468896.207 6017391.292 6002008.174 5689895.31 5892057.165 5683807.435 6352322.488 6149006.977 6654320.981 5879458.2 5370147.042 6039308.663 6602433.011 5907581.76 5613160.145 6243943.106 6569058.941 6242857.046 6001450.206 6040876.058 5793660.877 5946861.049 6136371.586 6568149.6 5680482.311 5983285.606 5953884.365 5966215.03 6096140.299 6366650.516 5694316.632 5785736.732 5020021.656 4656474.28 3827828.022 2414494.789 
1537653.982 2368141.799 3485257.314 3382097.484 3831963.438 3448599.335 4057839.774 2905559.689 3491145.544 3387546.541 3908436.548 3871469.506 3638760.852 3832701.478 3433617.048 3229142.132 3409481.707 3334494.041 3757537.451 3265056.634 3620090.936 3128371.471 4167716.368 3419997.15 2962705.954 2864329.338 2872809.024 3942340.386 4023903.622 3758311.826 3815727.822 3615067.202 3686398.118 3127391.225 4118823.561 3569713.093 3658726.878 3054304.676 2293244.467 1490474.658 
# Events [m3/m3_1570866816.hd_vd] N:
18 39 92 103 106 116 140 96 132 112 104 112 116 89 102 106 106 103 101 108 106 116 123 110 87 115 129 94 106 114 115 109 104 109 122 115 90 72 53 10 
40 139 241 300 280 327 346 320 334 329 321 300 337 324 344 324 338 312 316 351 315 301 301 306 312 304 314 317 338 300 314 306 361 304 313 299 299 231 122 38 
65 219 380 508 542 507 551 572 513 497 502 517 538 516 556 495 541 523 573 473 550 527 542 513 497 548 547 549 493 511 507 518 514 520 520 498 495 367 234 77 
135 323 528 675 746 697 738 705 740 733 706 733 697 768 785 733 692 708 688 741 758 740 766 667 717 726 755 747 746 740 695 706 728 749 741 743 655 502 300 113 
119 348 508 757 774 755 733 791 769 753 728 756 782 768 769 714 781 719 747 732 758 732 782 755 780 753 767 734 769 749 806 744 764 731 748 725 737 530 333 113 
103 310 526 717 800 755 786 753 740 731 709 772 811 786 741 775 775 799 728 783 802 762 743 752 736 711 768 736 759 753 713 732 756 817 731 740 711 520 324 112 
88 307 521 710 796 714 751 728 751 745 735 763 722 748 737 759 790 751 708 732 745 737 763 782 759 762 743 787 716 765 712 707 720 754 722 757 781 523 339 98 
114 328 540 757 758 741 770 717 742 763 776 725 763 757 737 730 686 740 739 750 746 758 736 778 723 787 739 750 743 689 727 786 783 758 779 798 744 508 312 118 
99 329 527 754 747 764 716 749 834 760 765 746 757 741 754 749 786 756 782 744 825 765 802 719 711 759 740 788 727 776 754 758 724 693 808 790 704 537 331 106 
112 309 494 738 770 760 749 717 778 763 718 717 722 748 765 740 700 817 709 760 756 752 764 737 724 716 795 766 743 779 761 782 743 761 754 749 745 548 300 125 
109 315 525 719 756 765 767 772 764 771 709 759 768 759 735 744 762 743 735 774 748 736 744 777 785 733 797 735 765 816 747 820 729 739 735 741 721 530 349 112 
100 321 528 722 756 724 738 793 769 744 775 758 783 727 776 744 723 732 775 740 673 727 742 787 768 775 701 776 762 736 726 777 743 725 703 748 778 531 323 81 
125 336 559 718 782 767 728 774 754 723 773 735 763 727 831 775 758 743 771 782 736 699 770 714 765 802 750 770 773 762 692 764 770 783 770 770 761 575 295 92 
113 285 536 724 780 778 746 762 786 763 813 749 762 689 789 713 786 735 773 736 770 763 775 737 753 774 791 724 754 762 730 773 779 763 746 732 664 524 303 104 
110 317 511 661 772 772 784 750 759 752 756 750 760 752 684 749 805 757 732 754 775 779 739 772 740 753 806 735 725 751 776 744 762 794 722 764 722 490 332 111 
109 316 540 677 764 767 753 760 747 736 767 700 706 741 756 762 725 772 702 730 767 727 718 736 755 759 733 780 751 739 746 755 740 766 743 744 668 540 315 113 
124 326 586 718 782 756 742 749 760 698 721 752 762 794 725 738 747 739 720 758 737 775 753 755 737 760 740 700 750 752 713 752 743 722 729 807 733 469 337 95 
99 305 530 704 738 776 716 749 695 784 803 761 764 753 755 799 727 736 681 734 734 709 760 731 744 801 767 787 715 680 715 761 751 723 756 791 720 505 342 128 
117 334 502 699 749 753 726 729 766 764 759 779 722 759 760 777 746 767 732 767 714 743 768 776 780 678 778 782 755 753 766 784 710 731 752 760 704 549 302 112 
103 333 549 731 784 753 675 719 736 761 723 741 776 745 715 729 823 776 721 749 730 796 744 772 754 788 772 757 788 737 776 748 760 751 743 779 761 562 350 103 
105 316 562 735 760 744 769 751 775 737 709 770 788 758 788 719 757 759 776 780 716 799 716 791 723 753 737 778 689 714 764 761 761 827 766 779 731 507 309 123 
112 291 529 695 732 766 755 780 782 758 748 767 717 736 771 756 691 707 776 734 722 726 759 700 780 765 754 762 808 718 735 721 742 765 733 736 668 505 318 117 
120 334 552 739 745 783 771 779 740 760 767 755 706 728 752 750 734 778 793 790 758 729 729 792 753 705 756 751 771 740 779 797 766 768 774 764 714 571 305 119 
117 313 502 712 731 705 721 746 720 723 725 771 757 725 740 741 708 713 732 719 772 723 725 757 776 785 788 690 754 762 736 747 729 802 733 703 742 532 341 97 
107 315 508 742 775 770 723 745 728 772 771 736 769 769 741 749 757 778 768 760 780 784 740 738 784 729 757 733 784 796 781 785 747 778 726 756 675 525 325 114 
94 329 521 715 739 763 753 818 733 745 736 768 737 735 719 748 783 787 741 780 794 769 732 758 789 754 776 792 749 777 733 727 754 743 772 734 676 535 310 95 
109 328 553 740 774 730 754 689 767 777 740 742 721 715 750 732 749 716 776 807 755 717 720 776 759 735 755 765 758 765 775 776 702 790 763 782 729 579 310 104 
117 324 499 681 688 772 755 775 733 746 766 722 791 754 778 743 723 807 721 779 739 762 761 751 793 737 768 717 781 763 782 720 751 797 757 761 754 481 305 117 
105 297 513 699 719 736 750 767 744 787 746 811 763 708 738 698 735 786 715 769 726 754 745 721 765 742 716 742 760 724 719 770 788 789 795 760 706 531 298 128 
102 296 531 715 777 737 768 750 771 787 796 773 724 784 764 777 753 832 699 772 737 770 731 712 747 743 753 736 752 745 715 786 748 767 705 741 705 506 313 111 
126 324 564 724 749 746 738 754 707 741 755 723 743 753 748 749 728 776 769 735 746 705 712 726 735 788 725 772 712 732 732 713 736 763 736 741 679 526 289 102 
102 315 546 741 726 761 742 721 739 732 749 738 744 787 752 743 752 749 752 739 794 786 753 713 778 762 745 772 786 746 755 773 801 750 802 751 706 538 286 96 
124 325 550 735 749 756 807 773 730 749 777 781 743 772 713 790 718 763 778 718 768 777 770 765 763 763 771 751 727 763 749 746 755 768 728 761 726 486 317 117 
108 318 509 748 766 751 712 778 766 739 788 739 723 779 763 721 731 758 686 747 775 772 765 734 736 768 734 758 712 729 723 721 721 731 787 689 723 551 322 110 
125 289 561 725 694 798 777 760 734 786 758 726 758 741 787 783 780 778 730 712 754 762 726 767 765 756 761 733 763 750 806 761 751 745 759 737 709 522 331 104 
97 330 505 762 740 742 762 756 751 763 768 795 730 788 693 747 754 776 745 780 727 742 712 759 786 755 783 740 767 725 760 763 764 763 713 740 756 513 322 107 
107 294 518 649 730 724 700 691 749 731 703 742 777 745 653 716 743 731 741 707 756 749 722 725 805 752 707 663 713 701 726 723 731 713 688 728 689 488 267 83 
68 223 344 502 550 542 561 505 529 512 530 506 541 523 539 500 539 564 530 539 513 513 498 501 556 560 514 502 518 542 525 504 573 526 500 499 489 335 190 73 
46 120 230 305 295 322 336 304 331 307 333 303 341 309 314 306 347 309 291 313 303 323 311 329 299 320 313 370 314 319 297 323 294 314 304 307 281 202 131 48 
16 46 74 105 112 121 115 103 122 119 110 98 106 121 119 93 123 113 110 99 89 108 120 114 97 103 99 117 113 110 119 111 110 91 134 124 110 78 47 14 
