# Format: McCode with text headers
# URL: http://www.mccode.org
# Creator: McStas 2.5 - Nov. 19, 2019
# Instrument: /zhome/89/0/38697/TESTS/2019-11-20/McStas-2.5_CPU_MPICC/PSI_Focus/PSI_Focus.instr
# Ncount: 1000000
# Trace: no
# Gravitation: no
# Seed: 1574231892
# Directory: 1
# Nodes: 10
# Param: lambda=3.4
# Param: chopp_ratio=1
# Param: DET=-69.9
# Date: Wed Nov 20 01:05:57 2019 (1574208357)
# type: array_1d(60)
# Source: PSI_Focus (/zhome/89/0/38697/TESTS/2019-11-20/McStas-2.5_CPU_MPICC/PSI_Focus/PSI_Focus.instr)
# component: lambdaGuideExit
# position: 0 0 66.611
# title: Wavelength monitor
# Ncount: 10000000
# filename: lambdaguide.dat
# statistics: X0=3.42515; dX=0.39491;
# signal: Min=5.72052e+07; Max=7.84088e+07; Mean=7.23934e+07;
# values: 4.34361e+09 4.33263e+06 3.74234e+06
# xvar: L
# yvar: (I,I_err)
# xlabel: Wavelength [AA]
# ylabel: Intensity
# xlimits: 2.7 4.1
# variables: L I I_err N
2.711666667 57205236.79 554043.6375 42681 
2.735 58227177.58 559538.3785 42913 
2.758333333 59759679.77 566020.9274 43950 
2.781666667 60674247.9 569350.6333 44669 
2.805 61789571.86 573515.8549 45131 
2.828333333 62035022.81 573654.2726 45874 
2.851666667 62705845.17 575386.6728 46234 
2.875 64118494.82 579368.1046 47363 
2.898333333 65090580.89 582555.0407 47775 
2.921666667 65352589.25 581940.2206 48495 
2.945 65557615.64 581614.4006 48699 
2.968333333 66736431.78 585205.8455 49794 
2.991666667 68136463.17 590252.4783 50437 
3.015 69262862.77 592840.6973 51305 
3.038333333 70382724.18 595602.0512 51872 
3.061666667 68414772.69 584479.1269 52715 
3.085 70379795.03 591828.7851 52919 
3.108333333 70492221.09 589717.8163 53800 
3.131666667 72269603.58 595371.8631 54789 
3.155 72720940.66 595169.4456 55401 
3.178333333 73015056.77 594150.3672 55822 
3.201666667 72533441.51 589232.2012 56698 
3.225 72488634.56 586194.3994 57004 
3.248333333 74371954.49 591971.4866 57765 
3.271666667 74554708.38 589943.8629 58840 
3.295 75014801.46 589369.4228 59336 
3.318333333 74646089.02 584847.9439 59878 
3.341666667 75390086.38 585151.3523 60419 
3.365 76056468.15 585119.0438 61285 
3.388333333 75490421.96 579498.6812 61833 
3.411666667 77076421.65 582621.6398 62662 
3.435 76498625.23 577981.8319 63450 
3.458333333 76695706.97 575056.2967 64420 
3.481666667 77835043.71 577657.537 64748 
3.505 78322650.31 575492.0745 65963 
3.528333333 76709335.46 566214.0878 66135 
3.551666667 76040883.68 561134.0741 66174 
3.575 77388269.17 563326.1961 67688 
3.598333333 77871162.6 560737.7946 68676 
3.621666667 76835760.45 554020.3884 68555 
3.645 78408777.8 556603.1486 70137 
3.668333333 76757415.3 547159.2092 70131 
3.691666667 76325665.38 542454.9695 70643 
3.715 77426036.27 542760.4802 71817 
3.738333333 77537882.17 539632.1762 72652 
3.761666667 76183585.95 531448.3128 72537 
3.785 77529825.61 533154.4538 73708 
3.808333333 75853003.6 523312.1288 74348 
3.831666667 76187683.43 521630.4907 74910 
3.855 75828066.28 516431.8427 75767 
3.878333333 76048526.54 514233.272 76247 
3.901666667 76802177.43 513601.9047 76894 
3.925 75106835.49 504853.504 77646 
3.948333333 74754300.46 499396.7653 78140 
3.971666667 75567184.2 499507.3037 78957 
3.995 74690987.44 492566.8699 79674 
4.018333333 74875830.78 490540.005 80290 
4.041666667 73764122.12 483485.072 80327 
4.065 74405178.65 481297.6806 81614 
4.088333333 73405527.21 475521.4143 81735 
