# Format: McCode with text headers
# URL: http://www.mccode.org
# Creator: McStas 2.6rc1 - Oct. 12, 2019
# Instrument: Test_Sources.instr
# Ncount: 1000000
# Trace: no
# Gravitation: no
# Seed: 1570893947
# Directory: Test_Sources/6
# Param: source=7
# Param: Lmin=1
# Param: Lmax=11
# Date: Sat Oct 12 09:53:38 2019 (1570866818)
# type: array_2d(40, 40)
# Source: Test_Sources (Test_Sources.instr)
# component: m2
# position: 0 0 1
# title:  Intensity Position Position Monitor (Square) per bin
# Ncount: 1000000
# filename: m2_1570866818.x_y
# statistics: X0=-6.49951e-05; dX=0.0286159; Y0=-7.22421e-05; dY=0.0285992;
# signal: Min=1.05146e+08; Max=1.7434e+08; Mean=1.39744e+08;
# values: 2.2359e+11 4.2143e+08 999979
# xvar: x
# yvar: y
# xlabel: x [m]
# ylabel: y [m]
# zvar: I
# zlabel: Signal per bin
# xylimits: -0.0496168 0.0496161 -0.0496047 0.0495853
# variables: I I_err N
# Data [m2/m2_1570866818.x_y] I:
127973270.9 152433155.2 135162979.6 139821666.4 130347794.6 126343314.6 114155716 120327761.5 130109354.7 146031940.7 151434475.1 139011197.8 142632492 149758733.3 130363727.2 118022899 150645853.5 142078463.2 136285570 130425091.9 144165829.3 124061849 134971069 142532497.1 120464802 116074782.7 123713003.3 122375525.9 141985715.1 127826326.6 131585793 147890862.1 139455706.3 147110355.3 128786892.7 122169134.9 126620296.1 146968309.9 117416872.5 134987531 
162894605.2 139853798.3 143719587.2 144777981.3 158952115.8 151453757.5 143962309.1 148737669.6 140969865.2 145127755.2 156927130 130280950 153412929.3 162979946.9 135067193 158903122.9 131978459.8 124196583.5 135982340 135506588.4 165259494.2 145990316.5 158295495.9 140382269.7 137354624.4 141917322.8 147300049.4 117691963.9 135663059.1 132695726.8 148822410.6 141220356.2 122210969.5 142872128.9 144321390.5 155158570.5 140413827 135171614 164810973.8 156679129.4 
136338502.6 131895741.5 126734610.5 127189741.9 142189917.3 131285698.9 145174060.6 128185968.2 117458484.1 144351339.6 145047554.4 154088584.8 130397756.5 133219447 142339885.5 154900366.8 152296626.4 140288808.6 133387991.2 126976804.1 140027845.6 152323657.1 140914346.7 147478351.7 127318386.4 151273899.5 156472068.7 148769731.8 141952219.5 154235711.5 139444686.9 142455420.1 136596656.1 133249287.8 140081332.6 140124505.4 143729404.5 155466850.9 130409811.4 138411568.5 
148494687 131837721 128956458.7 133951288.4 140055032.6 158187509.4 105145854.2 137784956.8 154261488 161892163.7 136448339.9 143993837.1 140318147.8 128854968 122016376.6 140927697 129697656.8 143755547.8 142136180.8 129509645 123907166.9 122589986 129068221.5 130368493.3 151690487.1 139344682.7 143118916.8 127266208.8 135457489.5 121697290.6 138466492.1 146430252 153088438.6 138906529.6 138699975.1 131015245.3 150159685.3 140355831.8 153488020 156884932.1 
117787934.1 155195187.2 154668244.2 135287643.3 145511447.3 133174861.7 148676395 135554829.4 152172906 133225120.4 139889714.2 137989157.1 135886835.9 134086341.6 136337715.2 154699558.2 151714305.7 128171949.9 141021204 141775716 147779610.4 147204157.3 147440318.4 150056737.9 125923824.7 140611150.1 146550751.1 136321032.6 137837243.2 145995105.1 145350889 136384420.3 134181728.6 147919878.5 135763335.6 142296428.2 145837654.9 132511284.6 140436219.3 137160634.7 
148830386.2 133490866.8 164396161.4 133753577.2 127599482 146575056.7 141776470.5 136736446.9 151619840.6 147353356.5 130093425.8 155482490.6 135654946.2 137458442.4 129581446.2 154351227.5 142198829.9 124685997.1 132810388.5 146100472.5 152736727.1 146577043.8 143092389.3 134967299 146003627.3 129394412.3 142383844.1 128703854 139310625.8 128387167.7 136105083.2 145631941.8 139582256.3 134002468.2 130194848 153602713.3 130665343.9 151930007.9 147382017.4 134645630.5 
122040503.6 145020437.5 138137728 145700318.2 131386011.6 133326111.9 153312298.1 149037905.2 153418882.8 146554499 149319373.3 146031338.2 123333308.5 135647129.3 145075261.2 130955140.5 147981987.9 125912587.9 128757464.4 129063518.7 138873665.6 142473318.5 151027229.5 141722903.6 149545542 147425592.5 124655189.4 138988888.2 155112855.8 153353244 145141607.5 125641723.9 151113734.2 129961425.4 133941892.3 142180943.3 156490405.3 134360657.9 141897926.3 132343205.9 
128766885.6 136441795.9 141804432.3 141396453.9 134527039.6 137778626.2 120982682.6 135057916.8 149969295.9 154698325.9 139873014.6 147221347.9 138195270.7 152455599.4 129196214.7 151154153.9 124311347.5 146712725.7 140629398.2 130658916.3 141804293.7 170199624 134148026.5 148433577.3 135596238 150278069.2 134453807.6 127354195.1 130397221.6 133591417.7 151725090 120584986.7 131543128 132754597.5 146391917.6 157039866 139460752.1 131075822 150945825.9 132910929.8 
143376563.4 136423754.7 134777132.7 136676479.2 129758800.2 134689677.3 148780590.3 166276959.3 150359037.2 128584235.6 131537630 126728223.3 159724632 167079695.1 145610070.5 132364672.4 137601234.3 131659784.1 119566600.9 136495627.1 142224079.4 139593764.3 145245715.4 148249899.2 141663506.1 150821810.7 128753450.1 138886546.3 130446529.7 137941076.8 120457912 156681871.6 130331514.9 132963058.7 131200660.8 123434999.8 149556572.1 154468423.6 142283329.3 136685834.1 
133104477 136830299.1 145544894.6 165869304.2 154036458.2 144361280.5 128186829.4 136825943 140410679.8 151829405.2 153426792.6 149537867 138129077.1 146396395.4 146723312.9 148691565.1 141567334.4 142726477.7 135746691.6 148462585.6 135120601.8 154966620.2 142176145.3 164675968.1 158994207.2 126973006.4 141747033.2 138818090.6 135048154.1 141338957.6 158687647.5 147029738.1 144747240.3 125169512.2 140431121.5 157808501.7 136539468.7 148427904.5 137910562.9 141823665 
164206235.9 147241447.8 130934206.7 125627062.7 151538099.7 142150212.4 116470892.2 143905254.6 158094302.3 148495492.2 138905070.8 123794748.4 134635425.7 134486618.5 115683228 128488954 152515417.6 147859789.7 147721586.2 118615279.4 132590312.5 158039527.5 131942131.9 134619613.3 126303197 139153982.5 149009667.7 136921653.8 141421376.1 141622467.7 157579218.8 141600590.5 128084411.8 149917473.8 148898828.2 148215127 160212814 130948849.3 150663656.6 137886252.7 
146302646.7 164448484.2 134567474.6 148261816.5 137485237.9 125757118 133096252.9 151457127.6 125224355.8 139374491.7 129751124.7 135021044.3 149645202.3 144309473.8 134646013.2 140986874.7 147054730 135272030.8 150022671.2 132576095.2 140253835.3 133685820 118609889.9 151609324.7 152946603.1 139480593.5 138755446.6 134584250.8 135880693.2 135342181.5 138544227.7 142499369.1 136225126.4 128443659 162329944.7 147356258.9 141074324.4 121622636.8 137886773.5 117752325.9 
142657483.2 139264892.5 133708524.7 145225070.4 136161234 134695082.6 139609955.4 158607643.8 128794534.6 117823976 160728019.6 132994696.6 120522671.8 140431608 133864112.4 133356955.7 151655259 130370440 153468777.4 139859714.4 143253509.6 138143386.1 136266097.6 139864908.6 121395459.7 133051299.3 158121450.5 128279638.7 144003098 137980563 132965990.8 139476918.5 145365823.3 146656463.1 156427567.8 134097835.4 156695045.4 145328397.1 154443046.7 129793353 
139923871.5 135856758.8 139147458.8 149522409.2 138544854.1 152363221.4 125841584.5 136382044.2 141265052.9 116170467.4 137362458.9 146759545.9 138195863.2 125609220.6 135605960.4 160424244.6 139168548.1 133129553.2 130212575.5 135806172.7 132668335.3 145085087.2 134267385.2 126316509.9 159145924.3 162228059.8 142515974.7 122441874 129788668.1 153393833.7 156136304.4 139837116.4 133429594.4 146334854.5 144810989 155320312.7 129224221.6 139423062.4 144084255.2 130123582.9 
162139174.8 133055736.1 136744192.9 150687987.8 137778816.7 146194844.4 133554292.9 126012034.6 124149152.9 149013751.6 135614844.1 150926822.4 149569664.7 137167597.2 126185937.5 146683797.6 148296437.5 140419349.6 144679602.7 135429364.9 145903533.8 112791483.7 140340144.3 134080405.7 146938227.2 150795271.4 130036321.2 150248032.9 145532073.9 132973116.6 143264659.2 140321911.2 141168797.3 130893067.5 143434944.3 133362960.4 172362676.5 156966954.2 135844689.4 118217429.9 
119767935.3 152947330.5 135142745.7 138629839.3 136394977.6 138552832.1 131914668.3 149782651 151376278.3 133876078.6 141374808.9 152441553.6 131289222.3 144722804.5 147078628.6 127896134.6 140022278.7 148982705 144905438.1 146903226.3 148887443.2 135071032 137183481.6 126517156.1 126828879.9 153884471.1 147752334 138058768.5 144083212.1 130478430.4 145391328.1 140395548 141563446.8 143653270.8 139175226.5 147545349 143242696.8 142249899 151717479.7 141867844.5 
122621125.5 136775330.7 145659942.7 150991283 137450826.4 139966138 146244547.8 144952392.5 154307065.4 126559904.6 127989901.1 141279915.5 137682979.2 126313484.9 140709605.5 138882476.6 158688182.7 133802330.4 116151607.7 140769853.4 132044373.8 142783606.4 132005799.9 137105441.2 127341082.9 146296632.5 142513507.3 140949698.8 143001929 123084985.7 133514340.5 143125411 132809446.1 130436551.5 128744011.6 135397400 147202585.2 138096346.3 146113010.2 151342738.3 
120671176.6 137290861.5 147826152.8 140359842.4 132563926.1 155993122.4 134969069.1 127393979.7 149023553 152510422.4 121956099 133031205 161969030.3 156345607.8 134578898.8 131082177.7 125253647 138023194.2 144045783.3 138841655.9 139317926.1 124862598.9 148179598 147265921 150304008 161788508.2 136064808.5 145964853.2 118369224.3 140822442.7 134511306.8 150385951.6 146756346.3 140594589.7 146777068.2 115563274.5 137766410 140493453.9 146932665 135702766.1 
138348385.3 144947723.2 161165438.4 140741089.8 130880137.9 130636671.3 144893490.7 146333089.3 126081022.2 148516725.4 130203952.7 143961266.7 134851075.4 146454333.1 145135538.7 139100161.8 149495625.2 157381547 151407753.2 142191963.4 138053416.9 149056114.3 168330015.4 139873707.9 147763710.4 137750095.4 144943840 134191498.5 137202947.3 129802073.5 147687399.7 123796915 137754205.2 135967487.8 156906911.7 154569133.4 140170200.4 139758290.1 147026667 124735853.8 
135785182 125159180.6 127372676.2 120125214.2 140201498.1 126122186.1 155525115.4 130675556 128562889.9 132531795.8 124796616.8 142896720.1 141509395.9 144726436 138907296.7 130651079.9 139227520.1 133437302.8 148412586.3 139362880.4 167733846.8 127348226.9 130189631.1 154539583.9 131051853 136468329.1 127207433.8 137342600.6 149988973.9 140393127.5 143714314.7 142592724.1 130906994.2 131173445.5 132962292 125915478.4 127660022.7 140398028.2 128864019.5 137439353 
143473622.7 141115093.9 149884211.8 141016791.9 136966982.9 150383488.5 139682372.5 125541653.2 161447211.9 139180706.4 162037765.8 148584063.7 153996888.8 148995347.5 154821012.5 130425963.3 141967042.2 155060420.5 159271453.6 142940145.9 130453032.2 136056784.7 133108018.4 150171315.1 140585189.5 139241381.3 138375040.3 152723973.3 165403214.5 133723506.2 147452000.4 154892886.7 150362014.8 129631411 130845964.1 140053931.7 129769378.2 121884334.1 151145345.3 141683410.4 
121860230.7 143748317 139629136.8 135672245.9 157081228.2 134129447.5 145589147.8 131846385.7 130117133.6 143671205.7 169345486.7 141404607.6 151540447.5 157506087.6 143232878.8 152721591.7 160506247.2 126645134.1 135398738 143941583.8 159180418.6 149840578.1 120349983.5 145187269.6 147836800.6 146164921.7 137241567 120257462 148783086.8 127459816.9 134292652.3 145378775.4 146313386.3 151262508.6 156184498.3 145193651.9 142460605 140704087.4 142359334.8 139403609.6 
120070542.1 141869142.1 140311026 145394797.7 133089159.9 138611337.7 139063281.3 150111870.6 137731799.7 130352101.6 146869830.3 128389445.3 141577013.3 130957701.3 131850594.7 161140881.6 146426918.8 160834222.9 145000915.6 131501197.4 145478489.7 143270371.4 137636517 129518678.9 130929361.1 153458867.4 145628116.1 130162912.6 144840862.8 137984061 171269340.7 127956775.3 124734612.4 146753351.9 128732295.7 149172639.4 139086920.9 128027718.6 143108654.3 129278300 
162495004 135060991.2 122523967.1 143004997.7 161118075.5 127368925.5 119739569.7 126918774.4 144737847 141613865 122992858.8 139220687.7 152961010.8 146432193.8 130708058.5 138827670 145414062.5 143040043.2 134134043.3 132540241.6 128998948.9 130497927.4 136661357.7 140593074.9 125148952.4 138551615.4 137330882.6 141641997.9 143787581.1 134374668.1 147113961.4 131304603.5 135333469.7 143315782.5 139707858 141473355.6 135332187.5 142020415.9 127917729.5 135052125.4 
142511864 174340013.4 148408985.7 126073598.1 150814963.6 146699869.1 158067054.7 136796226.1 123669074.5 144255521.3 140979642.1 138928031.6 159817446.5 131978530.8 143971621 137601592.9 158471876.4 155427319 118675780.1 137565412.9 140951969.5 131756352.4 145936311.9 136073143.5 124192852 138680192 146214185.8 144362785.1 148157514.7 145939500.3 141704502.2 156594552.7 130903408.2 135359447.3 150280466 139897683.3 140671720.9 132847313.6 138049203.5 138929524 
128658139.7 153050491.9 116839432.9 131560649.6 165825758.5 143252402.8 158174376.1 139330942.1 127286858.7 135975189.5 136194144.3 143080137.2 139540016.1 159734769.6 136184241.3 138150444.9 142935118.4 140496106.6 128807283.1 131440254.7 134621935.7 145045810.4 118419991.5 133947460.4 139155496.8 136362963.2 136244376.5 148136980.1 131798356.5 153895656.4 131299998.2 124266040.9 148703770.9 144070113.7 136738493.8 151597122.8 135209664.7 149347546.5 142792046.2 132109578.9 
126859113.3 149646303.4 140204504.8 140213194.9 146066941.9 143646895.7 153437677 149810497.6 147699154.8 157353160.6 119254130.9 146305415.9 129151854.3 130633407 130752445.4 117326559.3 154304668.4 130863892.7 133557894.8 144324583 134564605.9 118233850.1 139650918.8 124934169.9 142638729.9 127296764.2 123011492.1 126033811.4 131869908 132133678.1 137178424.6 149946326.5 135562398.5 130037209.6 155329066.6 134429006.9 140914743.8 139717666.3 126149263.7 161789368.4 
145973548.8 143845042.9 125218024.1 143671892.1 133387393.2 140461724.1 126524640.5 148494475.6 136380135 132362047 148188086.3 141179885.3 151464656 130970785.4 136233405.8 141430979.6 151160906.3 139286965.9 137282889.6 153122039.6 132738973.9 145270225.8 138547040.4 140330010.9 141721143.4 140047916.4 143132357.8 127306904.7 141220570.4 134048729 141747256.6 132132881.1 120736231.6 131990972.5 144480510.7 124535112.3 126804036.3 127453986.4 153864408.2 147860397.7 
129166519.2 122617175 116721762.1 140637123 139833835 151569783.2 124303301.2 139049972.2 130217474.1 146292706 148351033.9 140645351.6 144445010.3 137591145.4 138271188.1 132472688.8 164417710 134442742.8 151898385.9 144947656.5 127016418.4 130531512.9 151044994.5 121183830.3 146455006.9 136454621.6 142615419.4 139165736.6 135714260.2 137914429.4 130081303.5 156231013.6 132130819.8 134201779.5 142490935 134089339.3 159273423 120576019.4 131927653.3 126268647.8 
129989809.7 142754094 146861655.8 127653924.7 157777753.7 136701706.5 138981923.9 132310849 135306614.9 144710642.2 136557516.5 138502940.7 152308950.6 124015601.6 148846456.8 147876172.6 148445921.9 131299531.8 137934896.3 126366862.2 137295778.3 140082633.7 134316253.9 122092356.6 145490989.6 136154455.7 148386311.4 127686446.3 151295839.3 142931192.1 128135015.6 126280949.8 116899593.4 142047912.2 133665493.7 132919272.2 129351137.1 132360335.3 132318219.9 131422465.9 
154957289.9 118248190.1 145891245.4 147763963.4 134457789.8 140657259.4 117417512.2 130352986.9 125223612 169885218.9 147790758.7 131223561.5 141216928.5 150411498.2 144413426 150376085.4 135087068.6 154775437.1 144570574.3 151379757.8 137270056.2 146076783.7 136451369.5 124926964.6 149588602.4 141247340.8 127371102.4 142926991.9 149453809.4 128840205.2 132380061.4 139098431.4 132060487.9 118174069.1 125881461.8 146328096.7 139536356.5 124663724.4 127335860.4 137597241.2 
127272001.3 128189333.8 142199256.2 132376464.2 136750093.9 130892359.5 144973791.8 157676046.7 145256638.5 116653589.1 145047246.5 150312892.2 135929884.6 161735040.4 147075014 140208784.3 145412497.9 141098509.6 132007483.8 145809356.7 139012374.5 131094782.8 141421702.7 159145531.8 147519797 134142111.6 143444278.2 129694359 139170144.8 137976575 131844924.2 139925949.9 139267155.6 141430010.3 141423892.4 131693555.7 139208306.7 142830293.5 128479100.8 145796403.9 
145555827.9 151198785.8 148956139.7 154139625.7 160314765.3 132413793.6 126730623.3 155298875.9 128538519.5 122458789.5 172898403.5 150306164.7 128987712.9 147548472.9 137116105.8 136304481 145179396.8 143227993.4 147832798.2 144302853.7 136499466.3 127441785.5 142528156.1 140432278.3 161140752.6 138534646.9 135424796.5 138302173.5 113930751.2 145767084.3 128976483.4 145421253.5 128638206.7 127731760.2 155994307.2 139165911.3 120466156.5 143137705 146722680.4 140250944.1 
139654252.3 147281027.6 152172001.8 142958338 136939458.8 159230105.3 142849222.9 132250716 148457746.4 132895505.4 132372382.3 139221546.7 138189353.1 142928853.9 152688937.3 137961095.2 149231661.7 145126458.3 125426219.4 138967975 143202557.2 111873122.8 135477973.4 150433432.5 154776066.1 112549987.8 143927083.4 142760478.7 147482522.7 142907576.3 145981718.1 139800087.1 121334125.4 136904495.4 130598031 125007432 135902551.4 162497220.9 132474679.2 136810832.6 
148813749 130061447.8 147452177.6 151079179.9 139293333.4 144488563 130465137.7 142628883.8 129888955.6 147375298.7 140941301.4 147014352.8 157061687.7 159313547 130759271.8 145627229.4 146861722.9 134948796.4 144243288.9 135189217 144831655.9 146332713.1 149273025.2 152195994.6 146820451.5 170705630.3 145320367.3 141025874.5 144831373.5 152600525.2 146907061.5 144806639 125856636.1 130172163.2 137934654.5 152899126.2 126841622.6 133140644.6 140176249.8 128481882.6 
134640457.8 135666114.4 136920737.9 143027214.7 122200519.2 146161835.3 129716505.3 128651074 133593147.3 141267990.2 142616292.9 130816586.1 148145449.3 144816900.1 135468472.5 168093264.8 128879118.3 139452834.7 137326355.9 128492747.7 142092524.2 135820987.6 135166198.6 115268864.1 139324203.3 137716612.6 132400955.2 156973576.8 137617975.7 135754877.4 140693879.8 131853216.4 142264945.8 143278048.9 139260533.5 129892250.5 143429176 144185507.9 142238979.8 130572610.2 
132375775.5 133360367.7 151168772.1 143743644.2 145295249.5 138138961.5 141961679.6 134031315.7 153334203.3 140720905.9 141003050.5 134298778.2 123604756.5 135395651.4 109653567 167754509.4 149218881.2 152084039.1 137178552.7 144341003.5 144336832 127813458.1 132699890.1 137820145.1 147177029.6 145895722.8 147109899.9 137100841.8 123934197.4 152032361.2 147980607.6 126709035.9 147556587.8 118224192.5 138355237.8 121141297.8 131152112.8 117065781.2 148614144.7 140164818.5 
142305980.1 142688462.5 129064489.4 154548466.1 131551171.3 144487210.5 141754353.6 133022950 136941079.7 141031491.7 125487589.2 146397285.5 123252317.1 128659227.5 144789636.6 141282621.2 154792039.8 131493628.7 145070018.3 123126595.6 156130663.5 127252682.4 153289726.8 122734278.3 142663352.5 149739306.9 143894311.6 148161756.8 140412041.4 130945175.5 151917303.7 139745793 137906030.7 146002334 148761332.8 133240333.2 135530947.8 157380775.5 157836958.6 127354360.8 
125824211.7 131848925.5 151361263.3 157426480.7 139773385.6 163303243.6 127317069.3 151655295.6 155278919 140311010.1 129364256.9 159865608 132670721.9 123543108.6 152324240.8 137030632.1 121812849.8 153569895.1 125105563.8 115877483.4 134070523.3 150978269.7 126195973.9 118141639.1 137053120 143159076.8 141786578.2 144397378.5 142960923.9 129849343.3 136619820.3 126469159.3 139248201.2 162573224.5 138556696 146502648.5 156679543.8 140475767.1 139802700.4 138393195.1 
125389579.6 145461665.6 131732984.6 127437436.4 131555443.8 123371773.3 135095736.6 127764986 146139922.1 143399012.3 131069427.9 139516307 127203134.6 152535169.4 146153394.1 138328116.5 133670539.2 145397979 125580872.2 142619832.8 152910209.8 135198221.1 148423899.5 132142084.6 137684613.8 129200562.4 141773419.6 136021530.9 141179019 137090365.8 131350427.6 151884393.3 122045049.5 137528781.9 140374193.4 138236411.2 143075112.9 139612070.8 135538228.2 136266564.4 
# Errors [m2/m2_1570866818.x_y] I_err:
10226099.24 11037511.65 10362915.01 10892413.48 9563698.334 9645940.241 9220957.096 9333693.017 9934780.502 10684214.83 11078862.93 10437205.28 10571919.4 11215979.91 10138957.53 9286291.019 11019246.17 10410449.81 10620117.98 9977362.184 10903637.7 10014581.99 10365770.51 10616844.2 9747598.393 9089439.405 9896796.362 9502109.951 10722799.2 9855727.64 9991302.107 10571245.85 10665925.95 11136016.61 10028915.53 9560364.235 9886931.098 11321529.13 9323812.354 10495491.43 
11871982.11 10596777.71 10646368.38 10892750.29 11571322.83 10906079.34 10723975.87 10820072.47 10854721.7 10810427.77 11259406.38 10320256.42 11226719.62 11359204.65 9845826.496 11514584.89 10122907.78 9473577.493 10336165.49 10202982.03 11649071.53 10695410.03 11555005.79 10424846.68 10309012.45 10977032.6 10461370.82 9254909.24 10529360.83 10396594.87 11020913.93 11004221.77 9461850.928 11075203.25 10466719.94 11174434.38 10550831.72 9941990.163 11756873.26 11394345.61 
10284578.22 10309334.82 9850145.079 9418441.25 10489618.86 9972130.163 10846480.07 9657697.146 9121190.949 10832516.97 10670762.9 11200095.91 10079642.88 10554190.84 10900696.03 11163442.52 10821655.35 10589838.18 10318470.91 9861183.867 10344346.02 11596538.27 10900760.88 11230395.31 9765013.397 10908226.18 11633470.67 10877503.32 10477370.21 10998561.66 10272743.85 10405307.53 10307756.04 10093863.83 10457746.6 10410996.1 10377586.37 11529953.98 10095613.34 10207876.44 
11074370.48 10117994.4 10049184.53 10580423.23 10517673.02 12100257.57 8657188.708 10556296.95 11467946.69 12004081.8 10567665.9 11049399.98 10268102.49 10074618.08 9623361.568 10450576.64 10106647.94 10524302.17 10628752.03 10025376.32 9575911.904 9483596.914 9966469.941 10284207.18 11120326.53 10661928.8 10773322.86 10111737.46 10507650.65 9174555.194 10303352.19 10812655.05 11478506.28 10746578.99 10533328.88 10355621.44 10427332.43 10484219.36 11154703.06 11774558.17 
9139919.511 10880354.47 10760364.27 10228533.38 11035646.85 9824839.517 10966937.78 10309699.41 10646285.25 10130621.65 10255838.46 10301870.89 10371568.34 10162559.04 10322091.92 11518401.11 11211440.65 9615698.879 10679531.75 10759369.14 10972426.7 10905707.08 11004073.91 11264170.54 9802329.472 10307669.47 10761355.84 9832042.215 10729774.82 10780353.84 11067451.75 10372418.68 10558857.46 11079666.59 10357543.39 10367631.58 10738697.99 10138163.09 10509766.7 10635579.79 
11160594.42 10496955.51 12046023.41 10775911.91 10254378.49 10892674.05 10419747.01 10214561.02 11079809.27 11243780.33 9859298.667 11413402.66 10455524.72 10648154.86 9569736.137 11493272.05 10780810.16 9956715.881 10468738.29 10873560.44 11269680.55 10857974.85 10168287.37 10035374.85 10866301.39 10094802.72 10722407.83 9824127.167 10363767.21 9810805.109 10474154.82 11051763.33 10218765.49 10655246.79 10257755.51 11064697.86 10136739.13 11262900.18 11063131.38 10350921.14 
9676532.325 10719131.51 10212486.95 10668007.4 10367144.07 10262491.1 11349316.02 10827556.16 11109006.75 10698566.44 11318251.53 10798197.96 9822825.451 10587731.17 10791686.27 9776442.285 11099780.62 9927019.634 9772330.318 9988471.253 10358714.86 10569442.05 11145735.33 10654791.82 11056595.12 11064972.8 9616059.015 10502465.58 11106126.61 11267895.17 10873091.82 9377205.277 11706261.19 9905143.055 10579808.62 10489051.08 11505786.2 10300541.83 10732654.32 10238924.2 
9683329.564 10760466.76 10864288.25 10600267.68 9988426.215 10474918.4 9087786.409 10423323.76 10991684.82 11619770.71 10430167.3 11118988.3 10280992.92 11304459.29 9780285.766 11136812.53 9893373.417 10515520.75 10930968.54 9723291.554 10263431.55 12044197.9 9878617.529 10799915.53 10529237.17 10954238.86 10248262.46 10073007.15 10266418.2 10091616.93 11372779.36 9162522.801 10712307.44 9952250.42 10711691.97 11581932.05 10866431.34 10019038.98 11365674.69 10268787.17 
11096786.87 10490835.82 9884753.776 10662435.11 10160927.61 10215142.51 11144240.51 11874808 10660995.71 10115557.13 9972383.172 10330033.13 11545849.03 11473422.59 11034653.84 10218136.45 10211156.62 10086773.62 9648337.235 10586031.07 10783244.85 10586316.29 10700686.31 10814032.83 10585102.13 10784740.79 10028929.48 10651026.31 9789051.807 10298888.31 9342024.55 11373579.56 9650455.434 10262284.19 10416572.75 9113051.88 11152279.74 11837099.66 10958015.96 10343683.57 
10180678.41 10590314.72 10738201.08 11592488.11 11174576.75 10731852.84 9858119.845 10262839.16 10250657 11252717.17 11241984.21 10926350.8 10354342.12 10882836.49 10829602.43 10794218.1 10351467.82 10652938.63 9956388.776 11319089.12 10194900.15 11628322.1 10663365.95 11724162.62 11288327.33 9725526.261 10661062.58 10956530.04 10254362.61 10644262.86 11684815.48 10796676.79 10729005.15 9657474.144 10587854.64 11503469.36 10294179.79 11083676.38 10331683.1 10992461.66 
11868814.87 11093144.85 10058213.1 9995927.966 11253729.1 10600242.3 9454498.905 10500513.86 11453970.53 11335479.6 10571205.14 9186943.868 9888990.222 10036529.69 9332093.068 9381291.019 11256502.71 10790984.02 10877241.56 9281526.907 10183142.88 11673229.06 9896568.503 10419882 9708971.265 10832298.41 11341443.73 10149439.15 10686380.9 10244431.39 11422059.56 10889261.53 9798385.381 11261371.35 11142383.62 10959324 11500945.39 9879822.328 10929118.57 10762147.39 
10575553.35 11519044.12 10342817.47 11109662.01 10249236.62 10180766.7 10122381.19 11143767.38 9923639.214 10499790.81 10213931.38 10365165.64 11335163.84 10866766.91 10499792.94 10903990.95 11307234.79 10540578.91 11173805.31 10127004.73 10631554.41 10147720.81 9489300.121 11198440.44 11641195.69 10517538.27 10545831.24 10005717.69 10348094.52 10467798.08 10188683.3 10558580.44 10080153.08 9873096.087 12340168.43 10970093.45 10483848.61 9081367.444 10584173.9 9216677.762 
10508559.56 10516954.5 9914143.295 10577769.27 9901069.902 10283516.49 10431667.55 11444071.35 9721938.8 9326520.667 12174600.4 9810170.168 9133632.121 10430748.41 10386370.52 10449656.4 11167364.82 10038139.5 11239440.67 10337097.75 10541367.39 10543580.58 10448482.22 10244717.4 9977996.397 10040639.07 11404284.46 9882860.956 10790611.72 10722662.87 10537785.64 10216328.15 10669831.71 10840860.77 11542635.91 10399841.41 11305778.9 10832101.64 11157678.81 9596141.635 
10381290.59 10112560.86 10434097.29 10593280.79 10446944.68 11086868.12 9507754.459 10030405.79 10129316.14 9288046.278 10556280.35 10857559.37 10576922.01 9995830.987 9970868.667 11665946.45 9879989.599 10204558.78 10170347.79 10503736.34 10258342.76 10712366.79 10235450.76 9687829.618 11569041.15 11725445.45 11050509.46 9922193.592 10176968.89 11306803.65 11316794.96 10754508.92 9877831.053 10849845.08 11010264.49 11260197.84 9783337.172 10636105.11 11254119.76 10489520.86 
11859890.56 9747988.107 10017061.28 10963174.3 10784341.52 10874760.36 10268515.18 9867725.79 9366924.29 10797519.52 10293206.68 11236777.72 10910132.48 10620247.77 9684818.985 10958511.18 11192502.95 10796070.49 11113499.39 10476692.4 10960383.34 8927358.723 10460829.03 10405990.53 10543377.52 11057421.14 9998283.603 10820701.68 10812605.63 9877607.119 10709881.1 10723295.35 10434143.48 9909216.049 10643160.24 10091396.89 12150540.75 11201430.37 10019642.56 9775593.798 
9258850.336 11382769.55 10521490.54 10401667.61 10282227.88 10796107.81 10255647.3 11273730.26 11205202.83 10057833.08 10688329.71 11128937.56 10218834.4 10883569.51 11142618.62 9840354.975 10081228.29 10946060.58 11183895.35 10894229.92 11448395.66 10113173.2 10048066.66 9748810.636 10028762.29 11593028.54 11113880.19 10419418.61 10738166.1 9692991.279 11016814.36 10556927.99 10334833.14 10722902.97 10515286 11084412.04 11218473.91 10849697.5 11165825.5 10757243.5 
9576114.992 10267214.07 11004719.66 11031294.05 10840640.15 10768443.66 10847624.84 10488455.68 11171295.21 9786914.634 9574048.334 10633143.2 10531292.42 9959355.917 10384446.46 10559956.26 11486120.81 9782617.34 8847536.432 10819275.65 10429332.8 10903850.18 10063888.65 10268833.58 9895254.686 11048560.29 10639932.34 10256775.97 11170673.43 9961759.54 9663550.446 10392714.61 9502082.113 9982876.225 9824525.215 10082474.59 11194699.5 10296743.01 10690300.25 11184361.36 
9438588.656 10984710.46 11219873.53 10718013.4 9837708.287 11070497.86 10633686.98 9922156.744 11079979.92 11255052.07 9585386.053 10358877.35 11604925.02 11319452.97 10597650.56 10427139.43 9854942.014 10495958.7 10488998.68 10506881.24 10817707.4 10135131.23 10932847 10786535.23 10868637.92 11801072.8 10707187.37 10975137.34 9134721.401 10676213.63 10543312.21 11009016.15 10868008.76 10552484.73 11042005.09 8812531.099 10724184.64 10970489.64 11002260.6 10078862.01 
9976324.482 10678195.54 11839231.03 10900866.86 10439109.8 9824587.037 10602936.4 10848582.62 9900936.517 11015745.14 9862200.532 10796998.19 10676172.64 11339831.61 10872050.48 10271777.05 11136653.84 11609588.1 11209466.36 10714077.1 9861334.186 10887164.77 12091309.69 10480009.02 11206420.24 10242874.14 10827605.3 9953539.507 10266654 9660231.461 10657757.73 9264173.285 10076294.4 10241755.98 11233245.54 11327691.34 10530273.99 10926153.79 11126079.88 9732724.77 
10237447.67 9706757.076 9610929.378 9350484.62 10476629.37 9931439.23 11287134.82 9963097.383 10088432.02 10631988.9 10297795.23 10759458.02 10437780.09 11076663.15 9989238.698 10112618.16 10389574.78 10293185.8 11232089.13 10634316.29 11775216.93 9553135.036 9513892.619 11314238.79 10159264.14 10490290.23 9491442.879 10125139.88 10920539.31 10271504.67 10992550.57 10469480.17 10222180.77 10486394.45 10059603.92 10196624.98 10016281.95 9842710.337 9566470.133 10555691.56 
10446264.92 10423866.82 11310007.19 10356341.47 10518874.57 10908624.08 10297393.81 9476057.537 11775934.65 10370674.74 12161350.28 10529009.44 11200477.65 11470591.38 11700193.73 10364579.75 10675377.27 10940448.01 12145324.78 10321103.16 10171086.44 10673643.81 10087188.89 11118560.19 10693410.65 10795347.59 10396798.64 11503973.35 11916908.89 10235578.3 10866934.48 11302413.1 11241402.36 10023579.49 10222325.56 10426713.14 9989076.22 9764004.742 10749624.31 10494613.14 
10098285.49 11081336.52 10796042.95 10250506.87 11664578.84 10310679.74 11167875.94 9926938.923 9891946.507 10735203.51 12407630.91 10517054.11 11401838.21 11181552.72 10494723.74 11528991.45 11814023.62 9495824.85 10216301.55 10689788.25 10977553.33 10852315.7 8985178.524 11246306.25 10786227.29 11234536.64 10297933.22 9361042.33 10735073.28 9409926.122 10397433.19 10620177.51 10834814.22 11041359.55 11416933.26 10434980.35 10612414.91 10287743.97 10884887.52 10360265.89 
9352783.155 10710507.04 10554959.02 10714679.47 10344993.74 10512404.85 10587585.12 10985093.52 10684330.6 10046652.3 10861905.81 9641305.8 10562625.28 10149577.57 10514586.57 11640666.88 10483463.17 11473948.75 10705453.72 10138363.05 10954935.72 10854223.3 10707504.65 10268424.39 10103618.71 11265017.81 10744297.5 10164320.55 10616951.3 10551011.98 12070625.28 9816092.173 9852056.869 10990688.62 10415955.37 10937399.63 10605464.75 10129479.69 10594846.57 10036943.07 
11950838.9 10333662.63 9249989.451 10730814.8 11657750.3 10471444.7 9158753.385 10146459.32 10806310.83 10919082.29 9826678.293 10233043.87 11316187.43 10629020.71 9710802.449 10259054.1 11015992.08 10297489.61 9796027.348 9863295.358 9994284.444 10087011.08 10126908.89 10852187.58 9413894.989 10787845.33 10456378.28 10821475.63 10794908.29 10164432.67 11281368.33 10074994.69 10696572.2 10543889.2 10693410.36 10273390.64 10414599.4 10845557.48 10116808.04 10330116.08 
10495733.52 12404996.59 10886032.91 10274393.5 11173509.66 10680414.27 11630034.51 10722716.9 9798837.074 10839225.15 10831508.42 11020683.11 11512647.69 10222336.83 10725304.34 10643998.37 11255374.1 10972478.23 9584645.62 10129768.97 10503642.71 9787656.673 10575105.51 10840911.85 9683292.892 10379325.56 10707527.83 10642805.24 10984146.81 11072149.17 10690980.58 11662523.37 9645717.18 10497146.26 11245210.48 10475019.42 10944990.77 10046900.5 10243217.04 10729597.88 
9942026.575 10973954.54 9177740.462 10195951.2 11597378.45 10579109.89 11653520.15 10415409.9 9790413.231 10638459.57 10206615.8 10758755.69 10514028.48 11491400.45 10439798.44 10410137.78 10732839.15 10651567.18 10140489.58 10212994.32 10337385.86 10623857.04 9494656.454 9819296.949 10418332.82 10233880.97 10347041.49 11081874.65 10054300.93 11469323.99 9645644.279 9558435.988 10851967.98 10548901.65 10776648.43 11301991.08 10025008.52 10709763.74 10803871.62 10230966.03 
9780846.946 11035017.97 10769567.67 10491231.91 10972157.26 10567549.37 11255198.78 10963573.45 11855372.84 11294066.77 9485465.961 11017556.24 9545525.659 9898513.761 9964430.217 9207907.422 11414006.62 10084495.89 10536714.64 10527450.95 10469568.7 9259972.833 10119214.41 9805607.305 10424733.94 9790763.304 9885818.126 10225567.23 9737346.284 10177494.36 10315800.1 11483492.73 10239128.82 10326637.07 11253403.09 9874870.168 10454386.67 10504830.01 9843999.811 11831390.81 
10962487.56 10806345.79 9643071.21 10239639.24 9979519.866 10603190.32 9774034.196 10960589.39 10545401.89 10046834.27 10819773.89 10907334.92 11359348.36 10155301.2 10355371.43 10581727.65 10997057.34 10800282.58 10358807.72 11441805.44 10214830.65 10701240.35 10201806.05 10421669.06 10560906.24 10362740.55 10894553.32 9928112.567 10555746.9 10337526.73 10176787.22 10781905.3 9477141.114 10255187.95 11008709.54 9661241.763 10014957.12 9882096.023 11080959.49 11003097.11 
9957878.457 9394757.041 9128370.505 10770884.5 10791026.21 11383568.94 9822113.983 10297338.97 10351702.89 10812861.35 10951389.54 10237296.47 10547545.51 10252217.97 10286876.1 10070455.76 11699596.01 10075686.52 11226195.78 10610194.69 9967331.487 10109234.01 11280270.75 9710502.247 11122440.08 10107268.74 10502159.82 10476699.1 10662359.01 10328258.54 9783399.693 11368609.88 10416450 9857270.481 10888867.3 10181159.46 11644216.97 9262155.95 10295689.76 9605356.462 
10368070.96 10927911.68 10977612.25 9422996.751 11694695.9 10613678.13 10209405.54 10067457.03 10337290.7 11012275.06 10188488.11 10412292.44 10774444.71 10038517.43 10942889.64 11205149.08 11297568.66 10126521.85 9854579.467 9811622.688 10242183.87 10511612.92 10319953.96 9966301.944 10875553.47 10252603.2 10868203.34 9552643.592 11446404.91 10808123.25 10139761.61 9630613.107 9538964.903 10844327.03 10106593.38 10197223.92 9743552.389 10254893.51 10177193.01 10641355.34 
11553018.35 8986097.544 10807337.3 11350826.69 10177329.88 10539953.69 8997475.219 9803226.882 9457519.258 12461743.89 10680913.7 10238455.35 10700362.23 11236706.97 10717332.83 11079094.64 10324790.39 11214901.43 10835109.4 11317167.47 10383001.6 10987328.3 10845700.95 9667825.53 10847531.59 10444615.32 10039031.15 10639630.26 11148274.07 9918041.383 9980700.647 10775560.07 9745925.203 9277886.976 9861530.403 11214708.7 10510280.26 9726101.167 9879182.218 10604243.95 
9941242.438 9818334.642 10362752.99 10063516.48 10311440.94 10014702.5 10587990.92 11683727.75 10860740.09 8843624.069 10800295.35 10927875.65 10150305.2 11705243.06 10622044.7 10331418.19 10723342.72 10833492.29 10305243.72 10809024.58 10226591.29 9566114.755 10801054.58 11531446.04 10930795.25 10303456.37 10779202.92 10062893.3 10528926.18 10471537.58 10128107.83 10575365.18 10678908.49 10425698.02 10311769.51 9984882.19 10532066.14 10717796.18 10257777.68 10645910.13 
11262106.88 11175584.48 11127061.78 11127413.63 11779798.52 10468097.62 9699125.745 11135474.95 10120778.17 9470778.204 12044801.79 10612272.73 9992278.97 10872922.74 10166783.25 10063334.37 11133787.34 10895896.55 10917153.34 11200369.07 10738201.52 9834637.383 10596586.57 10974525.78 11301578.03 10316500.62 10239965.89 10177214.95 8800017.872 10693950.56 9779004.634 10589931.11 10249457.74 9716740.055 10971507.41 10302942.24 9321491.908 10670707.28 10845753.32 10655052.67 
10817498.93 10880330.48 11347446.98 10447353.43 10517414.72 11587748.39 10451267.41 10302540.03 11019342.33 10018896.71 10235851.19 10748390.59 10216230.36 10516579.37 11234696.29 10325986.98 11132916.25 11049165.11 10108267.96 10519876.17 10227315.86 8748395.511 10743748.95 11097779.28 11273854.31 9114197.052 10826429.81 10296613.57 10443927.53 10473007.45 11025436.49 9970839.033 9423600.94 10309099.51 9785715.475 9866460.55 10297894.66 11480128.03 10356858.36 10525421.65 
10745891.28 10455391.9 10944697.52 10896422.55 10725093.81 10761599.22 9563569.601 10791982.07 9990941.164 10589561.14 10405294.59 11143305.15 10904229.37 11676392.88 10193582.63 10965700.65 11074457.23 10392289.31 11200161.59 10379964.77 10756243.57 10991660.79 10871799.13 11016399.43 10955297.54 12064119.54 10825924.85 10715430.44 10284697.87 10884474.98 10802924.64 10882978.18 9294551.428 10370963.59 10792128.1 11365776.91 10319743.24 10169148.56 10820981.27 9753209.32 
10553691.5 10188888.02 10247010.1 10758977.29 9782414.073 10993066.47 9788333.104 10029713.38 10265138.36 10859675.52 11066829.62 9957997.457 11149609.43 10584363.15 10195241.29 12568413.77 10459974.67 10632502.49 10547042.91 10015186.22 10616424.99 10203891.74 10542013.32 9167250.272 10148650.86 10580740.15 10106570.55 11212861.39 10063278.2 10433357.95 10966690.31 9990244.868 10861077.8 10749770.36 10422836.82 9946921.833 11295998.19 10784568.91 10477500.96 10308501.04 
10142188.97 10151431.17 11175668.62 10647446.06 10840589.55 10355984.7 10951716.17 9785395.312 11301455.71 10683127.86 10813849.35 10519367.02 9870604.926 10252054.82 8862372.65 12096202.47 10857307.17 11185757.46 10428123.8 10754455.29 10733428.62 9623639.761 10111949.65 10601551.37 11023507.48 10738065.37 11046629.32 10423657.29 9402940.61 11412506.13 11005350.46 9810939.33 10816402.65 9498803.354 10622899.27 9931648.696 9816267.786 9111575.744 10402706.09 10576770.14 
10546622.43 10587046.87 9543851.157 10998145.83 10062788.88 10926759.78 10484430.72 10207158.79 10583548.69 10701497.28 9600810.384 10863519.29 9132788.055 10108693.89 10436442.45 10734612.15 11286357.73 10349713.35 10800842.81 9310333.47 11053217.34 9887304.947 11197176.33 9656852.096 10673359.11 11014206.82 11018818.24 10900591.86 10713050.13 9968358.091 10944375.6 10626058.9 10465563.39 11080759.54 10766419.03 10247683.2 10586739.48 10966808.71 11010417.74 9899440.383 
9900832.757 10121219.75 11251429.78 11421942.46 10402772.35 11692389.18 9769483.133 10883326.11 11274252.31 10399127.07 9701728.482 11206462.16 10236371.79 9485939.306 10954732.61 10555174.4 9435590.513 11087991.52 9503801.151 9215100.644 10466631.5 11399705.62 9820739.635 9153927.675 10579427.45 10654907.02 11146519.05 11009472.54 10591044.37 9874953.596 10029958.17 9560029.821 10242450.04 11619520.22 10324784.11 11199454.16 11549234.3 10411404.56 10509211.21 10755387.89 
9708964.746 11053380.46 10366658.09 9711040.198 9883602.836 9830079.138 10402523.74 9892835.659 10925982.28 10604665.12 10073647.77 10763909.88 9801874.411 11131323.65 10959307.97 10670266.77 10136455.07 10685088.47 9603407.498 10751173.47 11283619.89 10270296.1 11172733.92 9912962.637 10480623.45 10247399.25 10524719.58 10459989.41 10382336.15 10691955.27 10087353.5 11602361.75 10240090.83 10308875.89 10855484.39 10041278.18 10794688.86 10702848.44 10300403.76 10563571.13 
# Events [m2/m2_1570866818.x_y] N:
556 677 589 614 621 620 577 603 607 633 648 612 637 609 577 595 675 618 626 582 663 571 599 649 576 574 576 591 592 632 615 623 592 621 584 630 581 580 578 577 
673 649 633 605 634 646 603 675 613 676 713 590 670 658 633 661 607 603 652 613 650 663 657 623 630 622 660 596 614 591 660 635 616 628 632 653 640 629 647 646 
617 574 611 619 631 662 602 626 588 612 605 660 610 641 611 662 653 609 612 584 632 614 633 622 617 611 611 634 634 657 638 621 615 651 623 673 639 656 601 595 
653 610 631 593 646 578 604 620 654 628 601 624 621 616 562 624 619 622 665 605 603 638 596 614 616 633 681 596 614 599 629 623 633 594 599 625 671 634 633 643 
606 654 667 630 662 595 614 638 677 595 650 629 614 588 626 645 633 596 618 641 636 658 625 628 606 617 654 628 630 644 625 635 627 626 657 616 624 634 634 627 
609 605 625 544 570 647 676 635 606 625 627 650 648 626 603 637 601 572 595 631 634 617 675 616 631 592 620 610 621 593 603 638 638 630 577 605 592 612 621 646 
628 642 634 649 611 588 629 626 634 608 632 665 624 626 633 604 632 615 658 581 640 641 669 600 624 602 607 636 645 656 634 640 638 611 591 632 629 620 605 613 
628 608 597 615 615 655 604 630 652 620 666 637 644 622 592 660 605 669 631 634 671 687 611 677 600 681 650 635 601 631 629 639 571 611 649 612 608 625 635 637 
611 622 604 588 619 615 655 677 661 580 612 551 689 697 644 634 619 610 586 616 647 608 610 629 630 652 614 613 651 645 616 643 673 637 576 632 640 620 619 610 
619 595 606 657 666 659 595 656 606 658 633 662 599 656 652 647 627 618 640 623 651 635 618 659 668 592 641 607 630 612 660 639 638 581 624 651 613 642 627 575 
651 613 607 588 613 630 572 629 617 645 630 641 638 608 597 657 635 661 656 633 650 636 601 607 616 616 616 595 630 644 669 624 606 607 614 657 702 638 609 585 
689 672 615 668 623 568 628 672 628 591 615 642 608 650 583 627 599 621 631 617 612 629 590 650 620 612 661 634 613 613 643 612 604 624 628 615 645 610 634 625 
601 646 657 670 631 617 653 650 612 585 618 644 647 652 627 591 620 621 650 636 648 611 592 643 573 647 669 612 650 624 600 632 665 664 627 601 632 659 658 607 
624 656 630 703 614 627 607 631 647 558 622 631 656 605 610 635 680 594 628 562 592 597 622 627 669 670 614 584 622 661 651 615 631 669 612 630 632 628 611 597 
610 624 636 666 599 647 614 602 607 652 605 643 630 608 592 641 625 618 634 615 613 579 607 586 656 635 599 639 649 626 620 629 640 603 633 607 681 656 642 609 
599 633 614 640 642 607 620 663 629 609 646 612 608 675 624 610 611 650 624 635 607 601 648 584 585 596 653 601 631 616 645 646 607 617 631 638 623 612 639 617 
586 617 655 628 606 650 630 606 639 626 647 606 613 595 626 634 668 605 617 610 598 611 639 626 598 636 639 652 615 590 610 629 654 603 605 641 642 614 664 618 
575 606 610 579 638 626 619 588 649 597 578 640 657 694 601 611 614 593 654 608 614 624 622 642 642 652 600 661 618 641 654 644 653 644 639 566 649 598 638 607 
676 633 660 627 593 652 663 613 601 630 614 603 576 633 636 627 650 662 651 626 700 628 627 602 652 641 617 640 635 618 646 605 637 583 654 660 640 581 632 578 
597 599 643 637 592 626 679 653 616 602 577 584 637 625 648 626 636 639 592 613 651 612 625 638 635 605 633 635 651 639 639 627 568 613 633 606 593 651 632 612 
628 634 618 652 605 623 659 610 644 670 622 649 629 639 619 611 576 649 633 648 614 639 623 640 628 608 606 634 652 598 617 642 642 608 609 623 579 571 652 628 
608 669 603 606 646 638 645 617 621 616 624 655 611 646 641 617 629 597 627 619 643 671 652 607 657 628 645 569 642 667 678 663 627 648 633 636 633 640 608 655 
606 629 629 635 594 582 625 649 586 582 651 632 629 617 562 718 632 634 654 571 613 622 580 604 592 620 657 628 673 593 670 627 599 649 585 666 607 609 651 619 
615 637 640 630 647 583 621 572 658 623 569 641 612 638 672 642 614 677 658 623 649 589 638 632 587 598 634 635 591 602 634 620 584 644 622 664 591 595 604 637 
646 683 657 567 660 660 634 605 605 633 554 618 654 639 670 579 668 638 556 627 643 606 667 617 584 669 637 621 673 627 606 625 628 622 595 631 583 625 664 599 
577 644 590 652 666 625 659 628 634 619 621 632 628 665 635 617 630 652 598 582 631 600 580 640 659 602 621 633 603 614 628 604 608 666 591 621 621 665 651 615 
625 638 603 642 680 660 642 635 633 671 594 631 638 630 644 609 640 593 581 640 598 601 641 584 622 616 583 578 645 617 592 615 627 628 666 616 583 616 604 644 
588 615 594 635 631 645 589 649 618 620 651 622 611 600 593 629 647 621 589 627 615 649 623 671 603 624 579 593 623 656 623 578 622 608 633 586 599 602 628 637 
625 621 571 633 628 639 600 641 610 646 638 616 660 679 644 651 650 623 615 599 612 599 639 591 629 668 632 636 585 626 615 643 655 658 603 641 634 609 582 590 
598 611 646 617 640 617 623 613 627 591 579 644 639 602 642 642 617 619 626 586 635 633 616 583 625 634 634 619 647 632 601 562 617 644 650 622 625 593 618 544 
630 605 608 632 622 642 616 639 615 624 660 616 647 651 635 650 616 679 666 607 638 635 613 614 654 636 572 641 640 602 626 663 600 616 606 642 632 600 580 596 
623 641 643 602 625 606 652 637 623 596 633 635 639 656 645 616 621 646 621 675 659 633 595 646 671 594 623 623 651 608 633 608 598 631 663 587 644 640 554 592 
588 606 654 637 615 625 605 649 585 601 685 650 590 641 653 636 624 637 633 625 584 622 627 609 663 644 622 632 598 631 662 638 590 611 671 627 666 606 603 579 
605 637 616 645 604 647 675 598 675 615 611 633 637 643 651 615 650 597 601 601 652 611 604 628 649 573 631 645 664 640 639 666 598 607 588 625 620 680 588 621 
609 621 648 647 618 636 638 631 608 647 628 618 647 659 598 594 638 620 607 599 596 599 620 666 629 668 640 593 660 666 638 630 665 642 613 631 588 624 630 592 
603 590 626 642 582 606 615 616 595 621 640 637 676 600 639 616 601 604 601 626 672 643 599 588 646 635 613 628 646 624 583 642 663 619 634 614 616 650 617 586 
638 621 659 635 629 629 591 620 618 643 639 599 599 623 583 670 664 657 648 611 634 647 634 606 638 637 633 628 650 598 641 633 653 618 564 586 625 602 705 621 
614 636 628 650 601 654 645 601 627 636 627 636 639 618 657 621 656 590 637 606 681 609 666 614 637 644 631 638 605 582 660 621 625 624 643 630 619 650 672 589 
623 591 635 626 602 682 615 642 640 631 624 683 571 613 676 603 607 643 614 638 579 614 644 595 590 624 616 635 628 604 630 595 622 653 634 617 617 654 618 616 
577 606 591 617 608 601 598 631 628 617 589 580 604 657 598 622 625 599 626 617 642 627 616 606 616 590 623 601 628 604 611 609 574 647 638 616 612 599 614 578 
