# Format: McCode with text headers
# URL: http://www.mccode.org
# Creator: McStas 2.6rc1 - Oct. 12, 2019
# Instrument: Test_Sources.instr
# Ncount: 1000000
# Trace: no
# Gravitation: no
# Seed: 1570893947
# Directory: Test_Sources/6
# Param: source=7
# Param: Lmin=1
# Param: Lmax=11
# Date: Sat Oct 12 09:53:38 2019 (1570866818)
# type: array_2d(40, 40)
# Source: Test_Sources (Test_Sources.instr)
# component: m3
# position: 0 0 1
# title:  Intensity Divergence Divergence Monitor (Square) per bin
# Ncount: 1000000
# filename: m3_1570866818.hd_vd
# statistics: X0=-0.00369181; dX=1.66296; Y0=-0.00397323; dY=1.66191;
# signal: Min=758758; Max=2.04151e+08; Mean=1.39741e+08;
# values: 2.23585e+11 4.21425e+08 999963
# xvar: Hor.
# yvar: Vert.
# xlabel: Hor. Divergence [deg]
# ylabel: Vert. Divergence [deg]
# zvar: I
# zlabel: Signal per bin
# xylimits: -3.13075 3.13209 -3.1364 3.13717
# variables: I I_err N
# Data [m3/m3_1570866818.hd_vd] I:
3751120.497 7689322.12 18032750.71 29720362.12 23501706.78 21473022.57 26864682.77 24388405.55 23120431.64 22576745.75 29181923.61 31274456.36 31589892.7 20479346.09 29482309.52 31539582.23 20815848.79 32354831.19 26934353.45 31842655.27 26348405.07 27527446.73 25724555.13 21033913.99 23298182.29 21917398.96 19062858.7 30228638.01 30589660.91 29704680.47 26489054.95 26074866.06 19562773.09 26390522.4 20316824.78 25358049.43 23203259.27 23116607.53 15525922.76 2462276.668 
12438639.64 34662568.7 51461482 56016470.46 79834250.52 69272314.96 85869099.82 67873943.2 69375407.25 76340544.56 81169853.28 70173068.87 79233305.92 77620727.56 62979957.93 70158382.18 79036255.28 85384500.24 65521481.62 71244608.46 83611586.29 68962105.65 61235790.03 73065524.24 67759672.7 69024744.72 68511848.56 79532256.36 71483413.65 79593986.86 79075793.12 68534292.19 79986172.62 64786902.87 70690743.77 72791086.24 77307923.76 60193170.09 35542133.85 14616632.72 
29439912.9 57395878.44 71562888.09 123487989.4 115906984.7 122708632 130366088.5 123133355.4 115631035.2 115254725.5 132216659.2 100188148.4 111168478.8 130828004 115562520.4 122494235.8 121770589.6 110940756.2 114598366.4 130829962.3 121453284.5 112658715.7 129038140.2 128925467.4 122866049.9 113485643.2 115910417.7 122571131.6 115119601.5 104424707.1 121153297.1 121988767.7 121130050 130612298 96635736.64 112505645.1 117271936.5 67058914.22 60516355.21 15967719.71 
26189316.1 77862047.04 120812282.5 140828907.6 165062960 156397843.1 142858274.9 151797827.3 169558445.9 154918598.3 151349179.4 176487419.7 170381851.9 163127213.5 161862606.3 130533467.9 169199695.4 159091574.6 165514889.5 173579433.2 148967790.4 159156512.2 178450143.8 148894758.8 170540951.1 152962559.4 156686652.6 155934945.6 154760239.6 149812520.5 150006330.4 171111868.8 131486269.6 169177224.6 160214037.6 163510185.3 157473500.5 125078130.5 87244128.2 32318022.47 
32995675.83 82122315 128031002.2 174747744.6 168822178 173950065.4 167341686.3 166208778.3 155726939.9 169382165.7 163664697.9 174987607.5 159008485.7 168146395.1 172457419.1 168727220.3 161351137.3 175482354.2 178166529.8 176577216.4 154932267.8 162151157.3 165444854.4 173306685.8 184570954.2 154458873.2 134246165.8 167817678.4 170528350.7 160372762.9 174559367.6 189319410.3 181684840.9 149514233 171016186.2 189538203.5 156519678.3 115980913.9 89358258.48 20644319.27 
22541656.72 81162291.63 133125611.7 147669416.2 147117902.2 172832635.2 154596167.3 169133550.5 152587878.2 175250445.7 176773310.5 175189955.3 157976806.8 167102256.6 178482162.1 157124131.4 162286818.9 167768737.5 158291321.7 166446882.2 153232399 170144616.4 178561352 168842293.6 157271923 158633291.4 169914740.2 150248025.7 176307328.2 183314604 169579332.8 178862506 157457760.2 149832815.6 152484395.4 171251994.9 158666527 109920102.1 80075909.12 30452739.18 
31108682.48 73652053.52 107401417 188577219.5 173205107.8 148721255.4 163440951.8 173696390.5 176477977.6 187036529.7 163698076.8 182154017.7 167341297 162645318 165273289.5 184153054.7 185192029.1 145042718.8 156583529.3 171931250.7 168920565.6 143758458.2 169265434.7 154835539.1 181560139.6 166729212.9 178878973.7 160454334.2 170285292.4 160163461 166490299.5 143511497.7 177654160.8 172478687.4 187785348.7 160664967.2 169985214.8 121250509.5 62971672.11 30778634.49 
37883991.38 66828166.82 138278652.5 165504684.2 156547324.4 167882116.6 177657994.5 159725047.1 179796034 168032970.5 165834854.6 165906052.1 162797378.2 168305583.6 168883976.2 156463639.6 146996990.2 174441859 156356827.4 159950162.7 161457013.3 172970604.5 157957936.1 183682424.8 155202628.8 182641856.7 174264535.6 164134829.2 171157671.1 169709443.5 174723135.1 169742242.9 169540000.9 152287720.4 175419587.4 192054142 173220445.8 138489120.2 71527141.97 22692673.84 
18416214.84 74911984.87 113984484.2 156893487.8 172611065.7 156217717.5 169165798.8 182260119.5 165518075.2 201434701.7 162747113.4 155020632.1 166055185 164545309.1 186874442.6 186859795.9 155220583.7 153240064.1 169376853.3 176256470.5 189657984.3 166139024.3 173625317 160635782 177667281.9 171050737 163473812 158519716.8 171079264.3 155473076.7 175162121.2 172513680.9 154883652.5 159567052.8 160838352.4 168686538.7 152944642 128769498.3 78822171.65 24771822.66 
22290527.38 73441997.98 120421752.9 158993797.6 172269116.4 165402560.7 180518819.6 157337195.5 166020451.8 168744399.1 176048873.9 188163464.8 155820298.1 186875815.4 164950593.8 162350051.3 154841485.1 154046152.8 182503900 168126707.4 145040567.3 166343492.6 178362254 159669455.7 166701615.1 164134774.9 159280060.4 154588260.3 189154626.7 168142529.3 168540522.2 151170756.2 174343760.6 181650292.4 176789833 170436432.4 154073350.6 132404472.6 71331798.6 24174511.47 
30901928.15 57174120.2 116513806.8 187954653.3 158432314.2 170591700.7 166519693.7 167623609.5 176637450.1 185172227.1 159233258.9 166367143 165431930.9 158701095.4 169638664 173144686.8 164315838.5 150059399.7 165075882.5 152198949.3 169041799.3 175214023.1 181658232.4 187558530.9 192378907.3 163276792.3 145500143.4 166126392.3 183014335 162732586.4 185560737.7 160070288.4 162885455.9 168172154.5 172791498.8 188196735.1 156871235.2 126163367.6 80567491.77 24393218.97 
27753270.7 81752772.54 133061575.2 158379824.9 160358511 181192098.4 176120158.4 185609730.8 156140689.1 165303487.5 167051565.9 174260025.6 137070886.1 199671682.3 170038172.2 173381803.9 158521046.1 172406888.2 152426924.8 174901200.7 176774705.9 163226555.5 186900096 159831395.8 153245366.7 176463123.2 165561634.8 155427942.7 183375736.4 169551165.2 162317081.2 182689014.2 161471986.5 183621430.6 174303504.4 175003758 156939997.7 127522859.7 58452000.73 23838914.03 
28991220.36 91277892.84 131529340.6 173907093.4 161663312.3 165509849.4 165235649.5 170843100.1 161190973.4 147375676.6 179262721 166723315.4 160227051.4 172103612.5 165815070.8 174914513.7 167908346.3 161295296.9 173134074.3 153116090.1 160498113.3 165299598 158759371.5 145705242 189813580.3 170271928.1 156481330.7 160718053.2 158360974.7 148855524.6 177507625.6 175214742.7 166727888.9 171993480.3 147834196 178617572.6 155850527.7 121562286.2 80894445.06 21672516.81 
19506838.22 79812211.26 140947423.3 174718615.9 166951581.2 165944858.2 177297280.5 161281231.4 153624175.1 171925664.2 155915703.7 186954841.7 167935560.1 146824374.8 171486989.4 150639985.3 163777111.6 175194833.6 170306903.8 183480951.9 153722211.1 148794378.1 166405428.8 188634595.8 159242134.1 183189662 160482764.2 160874455 186233184.1 168384230.7 179606640.8 174674314.5 162978419.5 158054390.3 185959023 169182550.4 180341365.9 120367075.5 58183047.9 30368619.76 
25687166.34 69211058.59 132769007.8 169514465.5 159737710.3 167343627.2 169638415.5 166730988.8 134868705.1 168845207.1 170068734.5 166926582 156902674.6 167529581.9 166718671.6 168009850.1 182259282.3 176763718.6 173657011.1 160971856.4 149654256.5 153212799.1 189122735.6 171607121.9 157839883.9 177893490.6 164147359.3 157538308.9 182089453.8 169566154.3 151087959.9 174267657 188002919.9 190490901.1 167300678.7 169363515.2 150714620.5 115381535.5 73937861.05 24384111.26 
29471880.11 81122441.34 109765400.5 157889849.2 155718476 173658034.5 137737810.6 169553128.4 175690329 157133820.5 153827550.3 171979240.1 172282739.4 148060172.4 147649096.4 165130096.3 165633776.8 165419229.6 192609266.7 175058997.9 163721031.9 148784126.9 164373745.4 174467462.3 188396871.4 185824008.4 159479186.2 149634351.3 158577536.3 181635046 172647764.8 179463397.4 160435086.3 149688795.2 175692307.8 175266581.2 153761341.4 145884064.3 69951533.14 28592281.39 
17011317.13 84800569.71 124235807 172647248.2 149813821.6 168216643.2 142867035.7 185507550.6 171374133.9 172957124.4 174522856.2 168504447 188132658.6 163765290.7 164403112.7 176548935.4 152089184.4 158294137.3 178692924.3 165878726 176411731.6 160484171 155515136 165978136.7 157211287.8 169131858.4 163949804.8 170183550.6 157223025.8 169249242.8 147017479.4 164248315.1 165182535.8 168934839 157945401.7 173082839.8 191776432.2 102391932.2 77318526.47 35624938.59 
31081230.95 68130172.26 118647613 156920372.4 172601519.5 171481739.3 159144749.8 150489299.5 174583993.8 150555685.7 166762129.5 165845830.7 161501426.3 173688877.4 158940098.6 168127699.1 165287785.3 166678093.1 166209086.6 173177311.3 171054701.8 168610793.7 165474471.9 155911268.2 179545918 156360483.5 174146521.9 179024399.5 176734288.8 166950094.4 162261020.6 168224862.9 144093694.9 188934004.7 163771247.2 167847548.8 158922635.1 120429367.7 80431024.19 27602861.11 
29404478.79 70930915.34 112940208.4 163527627.6 172525659.1 163865672.3 155664851.9 181857204.6 188530313.6 146695604.6 157511708.2 166120700.6 162657106 167192395.1 174280978 153559312.4 164620460.8 169916870.1 172343374.2 166435471.9 171188299.4 171303786.9 154904562.3 157403064.6 174232257.4 198225759.2 177207627.3 167588829.5 163231377.2 162358225.3 171578873.4 147578744.1 146371470.6 177172192.9 143983072.7 176205404.9 149289211.7 127885768.1 79725256.4 19962801.74 
27785585.41 69229965.71 117320923.8 160138458.9 180717837.2 171071805.8 163458213 168451332 149190514.9 174046039.1 183939012.6 165637684.1 189447411.7 174990689.6 172849585 168239776.9 158759010.8 168995245.7 182929760 157393894.1 159811762.2 160371986 186832494.2 182116392.9 172036128.2 154579271 169260973.6 174329923.9 160343065.1 147391895.9 176909592.9 158956773.3 182169077.7 163424765.1 162848969 164461141.9 158669265 115299871.9 72998269.17 36490710.62 
20625000.99 65613946.02 130779264.2 168108113.2 171983171.8 164346857.3 140741802.9 167260645.8 167822131.4 171377318.9 177495482.1 159760394.9 166131834.7 160964832.3 169610487.8 189159005.1 178662451.4 179616294.6 156387654.6 179214616.8 170803992.8 172225440.8 158928060.7 178790783.8 180637391.2 164710971 169451096.4 157823926.7 145914835.3 183717109.5 164218560.2 150856359.6 160346643.6 177912428.2 162618888.4 179874419.9 151088779.1 130959109.4 74389470.3 24143840.44 
22012769.18 76810673.76 124377521.9 156668483.3 183009213.8 182519193.9 177937529.4 165100447.4 168209507.8 165185615.5 175845232.5 176992620.3 147971874.3 173450966.1 182493983.4 156109523.6 180211868.2 186133899.7 182743695.2 162423793.5 163015409.4 170953098.9 165536704.3 143132945.8 165112353.7 164633452.3 165651079.3 162586888.5 172012824.2 164393640.5 191034492.5 178391618 176546945.3 173164415.4 143600660.9 179233132.3 139449933.1 119424540.4 77484432.13 24153237.38 
23791459.12 76321747.03 105251337.5 177145883.5 174185277.6 165666895.3 152663762.2 172105958.2 140284182.1 172102785.5 163685960.6 164588934 187779717.1 172645331.9 176931866.3 178687936.9 169053413.1 176381441.4 190917619.3 145050639.1 160727287.2 173425794 180713735.9 155262841.7 155156986.8 168876737.8 169186756.9 175796948.6 172497076 170316569.2 186939046.3 162964470.8 165983711 167743869.8 158705388.6 187109600.4 153142695.5 108975237.2 78458987.25 38771186.37 
35620952.18 67799384.25 126103232.8 158549550.2 159675016.4 173145101.6 175198981.5 178064006.1 184169779.6 173858148.8 146889040.1 164443720 148973721 195798391.1 192888161.1 180186944.3 161530015.9 174820690.5 152834962.2 166472587 150808827.4 167194032.6 174907047.7 158670075 159251909 178006095 176132214.9 171899626.7 174699283.5 165335502.6 152206659.5 161451916.5 171632075.4 156877716.5 171866316.2 188685918.2 165543344.1 105971603.5 69398181.88 23946766.89 
25208391.42 81185497.5 114775205.2 169996010.3 181266987.2 173420891.6 167853720.2 186717817.9 161810631.3 175658254.8 140011411.5 168897172.4 163450618.4 185091789.5 168388029.1 163066079.4 163125562.1 182832576 153524471.7 170205625.4 143447341.2 144170328 142326520.4 166860156.9 184790795.6 182645420.4 165597943.4 163890968.1 176360307.1 161274560.8 170431303.6 183869211.5 189744659.5 163528842.3 160172697.5 165512399.7 147192390.5 115979218.9 77161306.79 24672623.66 
26077945.78 88552995.32 118555256.7 144610308.9 151434747.2 174627232.8 149505618.3 173108497.3 167214242.7 179067261 189273609.1 164967681.6 154778220.5 167586754 193180208.3 162158036 153818748.1 164746142.6 184135095.6 171681344.7 163770867.7 154873401.5 146588758.2 161500571.2 154692689.6 151543924.1 160494858.3 154800063.5 161631383.6 171592678.1 168022250 164665100.3 161581415.2 171937464.3 163198154.5 176920847.5 158019154.5 121222283.9 86034401.3 33502653.72 
25671017.19 61278222.82 123922785.2 162998127.1 181571155.3 169777105.2 166540560.1 170591003.8 169503413.8 163008104.2 156604269.3 183631642.7 139203384.6 167084472.3 171671514.4 158876233.4 173066993.8 171801758.3 165096771 140856469.7 163635441.5 175848582.1 165776439.7 154006211.9 169058470.5 179079096.1 150036775 158192539.1 165810901.8 192014835.1 169384908.7 145519127.2 166729457.7 154204406.9 188427965.7 154589040.1 151955798.7 134569597 73863610.54 29538687.19 
23865752.54 73360247.77 119517196.1 154836012.9 165883875.9 172550787.9 168060857.1 170197584.9 166379084.6 185959955.4 169586860.3 164882521.3 175021786.1 172255578 145279639.8 160330780.5 162143966.5 188235421.4 178370542 171413094.8 162505818 163311245.4 162471790.8 139734512.1 157401718.7 167657012.7 162259036.3 163164115.5 155902992 164725597.5 182354715.3 156424731.8 146599800.4 152350585.4 163621951.1 149862901.2 147413072.1 137254333.9 78417009.03 21962264.99 
22494480.12 62648635.2 123104050.5 162721569.7 163348909.8 165202802.8 162543500.8 165583763.4 151237721 152545421.5 141116436.1 168155918.3 175815295 168997238.3 148677432 179438364.8 177125485.9 156345132.3 159250542.2 185671628.5 166913135.2 161471582.8 175167220.2 168336127.9 166618507.3 187473553 168662650.3 184589515.8 160532863.8 173188183 153041189.9 150827541.1 156975089.3 183276261.2 150750259.5 156456148.6 161062299.1 110765858.7 58289161.67 25960220 
28513198.48 75020304.83 110127534.8 176697863.2 170655042.7 175827544.8 174820606.5 153103002 162002153.5 178245831.5 180096652.7 179842809.4 162609847.3 155562531.3 184122163.8 185784705 176868861.7 159245632.7 174444195.4 160520090.6 172351077.6 149026819.4 187899651.6 171464312.2 162053604.7 169426438 171977844 160713620.7 158622301.4 159204384.9 155851970 155768922.7 169345329.3 146579813.7 181919423.5 148678447 147026288.7 135357840.3 80644076.91 25547734.01 
29061019.96 72012602.78 124232273.5 169034587.2 174959142 157558331.9 179437319.9 159670227.4 151097017.7 175756207 184120768.2 173694332.2 172359316.2 163540307.6 182567805.3 177210804.5 181890254 172463575.4 161990649 174705297.3 163664687.6 149198847 169775523.2 187789292 158021955.9 143903404.6 152410352.4 161197702.4 148408419.2 162019140.9 162168416.2 161688998.4 145869444.3 177523819.5 179157264 140140229.2 161290566.7 113457707.5 70110149.8 31982175.72 
25106914.42 67763801.81 127985775 172669967.5 156576590.1 171109058.5 170249480.9 168067000.3 158688196.5 177128538.4 173254928.3 159178231.6 169814640.1 172543591.4 179141404.6 165201042 184009283.8 175934707.5 157798224 160647244.4 178632433.5 163995732.9 166775982.7 172059702.7 161257580.6 170060175.2 171747683.1 146488699.1 160145285 154808680.4 161081544.7 159699685 142999503.7 182512401.5 175859229.4 173347458 161414296.1 127381291 66514042.63 28637206.92 
29984134.83 78877410.75 116704149.1 166228952.5 170885854.3 164967857.7 173396062.3 184266178.7 154128964.2 140902951.5 175096532.9 179844161.9 172261180.9 172531159.1 175293997.1 191686653.2 185820486 174801844 160182572 155988475.4 157478490.3 162159001.4 164143851.6 167736201 165888578.4 172134772.4 152405655.2 185574931.5 190066922 176267332.3 158489195.4 173904914 163238869 163884900.7 160886032.3 156570677.4 136875239.4 121665297.8 72980816.83 20093550.23 
26713014.79 71458172.07 134896544.3 158979880.3 163268969.7 167279139.2 162583692 169378953.7 173422648.1 158450700.8 149373511.3 156776239 175938610.7 171329477.3 180092576.2 157674594 166972290.4 172809368.9 172701785.1 176710214.4 165100238.6 162603523.6 187887757.3 168296582.5 164483422.5 161541042.1 168854063.8 169219018.8 183642482.9 158516133.1 150015890.8 179372299.8 162953189.3 162574258.4 145083762.6 169351056.6 165347944.1 128110725.8 89605337.32 21485469.36 
31497566.09 74111013.68 112611132 156709019.4 173881136 175597339.9 176713560.8 153466711.6 164167364.4 173438966.6 181857853.9 162440893.2 145758649.6 162924265.1 140716221.1 187582422.6 183605162.9 174854692.1 188171343 163093159 151343478.2 178166695 164942039.9 164125112.3 185522228.4 174624194.2 176305250 185589368.5 181955819.2 160681211.4 173676321.2 180407450.9 171429882.9 165061859.3 185865650.3 165253396.8 162165578 127029744.2 68779852.74 26420495.75 
20113339.4 67512077.25 120246360.1 179053781.3 173324240.8 163923070.5 166389769.2 153619879.4 164228252.2 163699116.5 185000324.2 148659515.7 150977715.7 143120096.1 159411508 162158422.4 162196553.7 156042619.7 166523703.3 132529684.3 160545495.9 171443377.6 144474467.7 147901937.7 147522149.8 156729121.4 156139005.1 166347192.1 146005913.3 180602922.4 167456107.8 166542959.5 146356724 168319606 145142227.9 164974412.9 180706477.8 104633951.9 80578689.37 22338214.3 
23085469.23 70959592 119834020.9 163825529.1 158379579.4 172354620.5 160185199.9 159113388 133730200.4 155882815.7 161180085.4 152821033.6 177441504.4 158368256.5 166475353.9 177353130.3 151581026.5 158188442.3 152606700.3 204151117.7 176635680.4 158331717.5 174487013.8 162838854 150010595.3 169019563.9 144873934.8 160692773.5 170317180.4 194171494.4 169161617.2 138654565.1 164736693.4 143192905.5 170026458 151389328 168729113 107683898.3 67873171.31 32408307.43 
23749118 57143780.69 80955932.94 123867240.9 127331696.3 123941367.7 121082970.3 138175487 113114108.8 112176826.4 115188512.9 125239668.2 126851575.3 136934930.1 111640223.7 119503292.2 113584793.7 120007150.6 118599455.6 119117310 115785648 107952546 111505555.8 121200594.7 109749035.1 124811925.5 111603134.2 123545173 115539036.6 110395642.7 107681694.4 106330349.3 117514666.2 121843736.2 135615629.6 106504337.7 108161848.4 84105077.29 55110990.18 13432695.74 
5464491.755 31425647.69 50018219.2 65169706.59 69226108.47 68007511.25 66651134.08 86021524.74 67667186.82 83145261.95 71691698.16 61385302.86 78330688.63 87925461.12 71470938.94 59723425.34 74572245.78 72703013.31 67152769.27 76324416.71 73631967.85 64089696.01 75857111.14 69924520.13 70302331.3 67892524.45 80087343.36 77989029.17 65012475.45 65814093.71 70900852.42 74488244.34 85322340.87 71912249.06 88512295.15 78014472.74 75211236.04 45650857.27 35120664.59 12305262.76 
758757.6039 10447368.19 17520490.51 26183009.44 29569177.4 25737298.87 24914073.63 25193302.49 23114186.66 25935794.66 31552990.4 23938829.03 24356095.6 26082378.17 29743619 26730504.5 25600658.2 20542758.67 32007358.63 28275418.6 27657008.59 21020132.81 22056474.82 22364982.72 22505720.04 27998686.94 31783842.55 36697272.01 23666397.34 26677049.43 25847869.93 21935442.12 24842443.61 25087345.55 24761372.68 25401499.88 20415272.72 21364475.14 9466968.629 6851339.535 
# Errors [m3/m3_1570866818.hd_vd] I_err:
1671617.887 1972381.318 3692641.668 5090905.506 3913543.143 3349651.406 4415849.704 3748774.332 4100852.194 4429188.129 4964146.523 5658343.582 5144761.683 3633098.63 4987735.659 5068094.976 3857458.128 5357508.119 4317704.724 5525072.968 4657197.042 4613709.547 4459899.241 4365876.005 4017998.673 3971384.719 3417523.097 4932530.795 4803716.458 5010327.45 4028158.937 4316989.51 3298934.383 3931819.124 4124326.51 4464963.275 4211651.162 4175415.889 3788563.534 901384.0931 
3205203.174 5764457.972 6279252.044 5971758.214 8191837.926 7128313.034 8499043.596 7239928.576 7317637.651 7890797.879 7662300.707 7307755.369 7911035.122 8036840.061 6668427.355 7388337.082 8053635.05 8387947.272 6861691.935 7379888.264 8289053.264 7583628.876 6583209.107 7665570.413 7053057.435 7300110.767 6921288.285 8269773.258 7734665.381 8570734.804 7988394.235 7222897.578 8384772.983 6923395.121 7432040.555 7297051.595 8104256.817 7401500.248 5639365.274 3712793.931 
5318396.766 6772716.446 6853255.768 10226652.66 9788393.283 10147297.63 10083207.86 9697947.077 9315329.766 9615453.046 10507104.29 8948091.805 9204611.426 10453188.26 9098473.56 10029119.56 9456110.774 9333759.394 9045536.69 10823793.41 9757882.093 9397212.033 10599687.75 10387337.95 10107392.27 9297757.54 9542953.499 9980732.078 9689356.849 8884288.69 9606148.75 10013595.49 9781624.346 10426110.79 8438984.763 9087133.671 9513093.626 6546405.395 7030589.673 3515431.476 
4993049.117 7948704.798 9716333.523 10235630.36 11543458.68 10805457.97 10427596.11 10871727.67 12086152.95 10713451.36 11047335.01 12428442.43 11501933.24 11165454.79 11455704.05 9912757.917 11579405.64 11476317.13 11358827.03 11586364.35 10770849.23 11457201.23 12297544.51 10743682.6 11540895.2 10943135.26 11591826 11034586.51 11186609.16 10661061.51 10712762.62 12032826.28 9790876.135 11589409.1 11133701.32 11633803.99 11057553.52 10222516.7 8575703.3 5739854.47 
5334667.348 8317501.362 10102856.09 12220568.1 11899633.33 11940938.94 11449061.93 11135521.97 11129143.45 11665694.23 11202304.37 12061761.57 11187246.69 11438848.63 11577483.11 11668255.82 11198304.03 11965821.28 11795999.35 12262268.77 10772952.32 11488683.15 11317273.24 11497127.24 12577347.82 10612438.89 10215064.65 11253109.54 11522771.21 11503842.92 12021035.84 12601441.61 11858084.11 10882867.39 11326816.4 12739573.98 10763490.11 9372568.44 9026336.134 3517178.026 
4002374.192 8001533.802 10743345.05 10505828.39 10747745.21 11541881.55 11045753.22 11412612.52 10904523.25 11799792.92 12191725.79 11957105.44 11540958.03 11356489.91 11917262.17 11248103.25 11307941.28 11399409.36 11388696.95 10981117.98 10842785.97 11547685.21 11941311.75 11883957.18 10549196.5 11199028.33 11826254.15 10695633.23 11376557.46 11919082.37 11647874.33 12198176.14 11037821.44 10829019.2 10879833.55 11680958.13 11128401.04 9062738.34 8560264.718 5186849.052 
5116118.517 7426980.857 8644531.944 12778881.57 11931033.94 10608010.02 11142967.67 11862137.42 11933673.72 12278451.21 11195198.64 12140532.97 11517379.2 11279750.69 11775474.94 12072674.29 12463812.38 10498203.54 11048476.95 11600318.97 11718452.1 10388863.25 11534955.46 10998454.98 12434813.15 11667661.99 12101902.86 11184069.84 11463248.07 11161726.07 11448473.24 10364417.03 12182843.65 11582836.22 12530301.31 10794415.73 11920126.06 9743222.49 6694144.27 5089644.436 
5700797.831 7064098.741 10833835.4 11682277.04 11138580.54 11494970.57 12325209.34 11197543.86 12310906.33 11829893.79 11776705.02 11841053.72 11380440.4 11293541.19 12175379.23 11297535.7 10499243.13 11792861.9 11101758.42 11309791.64 11162816.28 11781124.62 10588188.95 12268992.02 10862482.55 12054775.59 11934003.49 11444405.01 12037674.45 11547765.56 12237314.79 12041572.99 11622775.05 11346990.39 11606747.87 12496598.21 12078705.71 10879513.31 7139367.027 4218099.946 
3586797.42 8284265.57 9141301.989 11264432.21 11800169.59 10908797.56 11743352.12 12277841.96 11370202.83 13012003.4 11361341.75 10696747.83 11406255.74 11226085.46 12098610.69 12603664.09 11374249.46 10550060.53 11834162.63 12023047.89 12340968.27 11581057.56 11446747.61 11200921.93 11727563.05 12032422.87 11133077.94 10820138.78 11352766.22 11168502.87 12172146.78 11683099.04 11106415.67 11412860.21 11163899.88 11774198.19 10889114.9 10621533.29 8528981.169 4150050.34 
4177051.688 7613665.689 9551521.693 11075206.16 11798034.59 11153250.9 12070705.09 10716539 11032080.69 11579351.89 11989367.11 12800914.8 10674935.24 12614124.65 11458105.72 11022163.74 10756482.35 11040592.87 12488078.72 11573721.16 10453503.32 11013704.99 11559268.52 10989548.46 11672063.97 11163241.65 11040306.71 10774784.68 12557367.24 11204806.86 11868674.44 11099556.62 11568874.75 11939597.75 12354825.85 11938980.93 11048069.34 10730843.66 7358340.009 4371166.736 
5056136.722 6353919.894 9482016.693 12591900.19 10809530.02 11983289.16 11761005.15 11760723.22 11837554.26 12113467.14 11383430.81 11672497.21 11457262.69 11419725.19 11334290.21 11818526.74 11288002.49 10427043.17 11233746.15 10766782.01 11756630.4 11839654.43 12120886.06 12603043.68 12713324.86 11307327.86 10606583.81 11319747.54 12304403.43 11294567.38 12624126.71 11170029.62 11511531.02 11663975.35 12224829.08 12035415.77 10461918.2 9823752.274 8032367.3 4442083.444 
4228597.125 8403139.291 10525770.4 10889693.05 10776260.84 12259443.45 11914131.17 11934687.53 10961853.83 11466623.3 11460771.51 11553943.19 9628860.243 12861139.1 11572649.13 11894401.09 11210399.28 11500646.94 10634843.68 12150017.28 11856042.82 11973702.45 12551499.44 10746081.78 10753676.87 12535797.73 11391430.62 10753467.24 12157470.9 11430332.97 10937284.57 12170643.07 11347503.33 12332215.8 12240633.86 11907369.48 11134678.68 9946090.588 6473755.186 4285676.722 
4771933.371 8757247.495 10603840.88 11700583.53 10901383.78 11364017.95 11572066.07 11503441.65 11390334.8 10643385.3 11863015.28 11489757.1 11482818.34 11228116.76 11552026.38 11941826.27 11530085.85 10918205.51 12297626.33 10723015.28 11451154.33 11268818.76 11239872.92 10584604.52 12911464.06 11792756.44 11225843.43 11194305.45 11713885.07 10080279.28 11889906.95 12170286.49 11799170.5 11369381.16 10450302.55 12342196.81 11373251.9 9906875.027 8323786.483 3191912.567 
3373309.565 7830192.435 10840142.94 11869586.17 11466962.38 11205087.89 12057464.28 11284496.49 10651090.61 11617098.31 11083531.57 13361599.99 11571901.72 10558611.46 11809833.21 10895109.75 11372939.38 12240526.02 11869912.1 12765313.5 10935132.54 10648057.92 11243257.25 12743245.09 11101608.86 12371976.54 11084917.32 10973732.4 12335136.24 11460761.63 11927328.05 12208210.09 10912072.68 11114919.17 12698521.14 11560405.87 12267246.08 9623363.515 6631006.628 5103790.658 
4289022.428 7289156.153 10510390.09 11372766.48 11003671.57 11512143.53 11309704.39 11225864.22 9818581.085 11661947.8 11579606.39 11257220.48 11180203.34 11524756.89 11573440.47 11691818.74 12226770.1 11892626.52 12028671.32 11199978.15 10857900.94 10463499.93 12536539.38 11337912.96 10879320.68 12355475.22 11375594.41 11366303.58 11966359.67 11809634.74 11030000.29 12068464.45 11908667.88 12836248.3 11457463.57 12085482.98 10595112.02 9457579.721 7926803.136 4312712.015 
4844524.584 7816189.365 8838054.949 11362577.13 11074996.88 11586353.35 10146995.43 11814673.01 12071090.71 10732709.94 11003073.89 11864085.13 11741926.21 10429928.38 10305986.16 11257108.75 11386291.48 11784789.14 12643991.94 12351501.01 11265731.94 11012848.73 11221932.12 11682996.95 12429195.01 12825380.81 11081600.35 10331860.84 11034116.02 12033724.35 11927472.72 11968123.7 11240092.96 10808484.76 12132883.56 11593495.95 10793333.07 11518026.16 7188044.322 4910851.713 
3012018.922 8551237.319 9672243.005 11874700.65 10951038.48 11766060.29 10896452.25 12230007.61 11527603.68 11772683.94 11553402.86 11423925.59 12476255.88 11242574.19 11417131.59 12080981.78 10898196.3 11171519.85 12135574.43 11282409.78 11930968.67 11495748.86 10841284.99 11355072.84 10888707.65 11710002.88 11440199.8 11727009.69 10950951.68 11762600.42 9796791.629 11303309.49 10994557.82 11542051.19 10829003.6 11610248.93 12904748.15 8943240.825 7709411.447 5754970.467 
5045360.098 7431721.52 9805871.513 11063630.83 11771457.66 12392515.63 11310553 10616249.31 11781808.06 11286953.38 11493817.12 11693680.01 11454054.23 12150228.34 10998651.9 11984573.83 11140875.1 11277232.64 11308362.81 12153037.04 11671701.87 11647997.31 10949511.89 11266043.12 12590080.5 11255576.98 11807904.18 11853160.05 12188483.65 11399100.02 11112467.74 11295789.9 9927878.344 12388156.43 11074228.3 11863392.45 11654756.04 9662099.348 7782815.2 4918772.067 
4955706.029 7266235.526 9148806.863 11749747.24 11745927.18 11485739.01 11087272.13 11880024.28 12939736.37 10292433.6 10524705.7 11696239.55 11428171.84 11787382.22 11840422.41 10703945.22 10996716.97 11542508.73 12268641.48 11170902.96 11828956.3 12019066.37 10793724.02 10964680.41 11845946.79 12986597.06 11898734.29 11826610.74 11071150.61 11343010.39 11762266.08 10598315.48 10453640.13 12111849.08 10736046.63 11473101.85 10602070.48 10077067.06 7824148.267 3866317.713 
4869589.888 7119217.258 9128319.11 11581140.71 12179941.8 11933061.44 11456011.61 11255988.66 10759433.41 11704711.59 12890296.51 11630357.64 12691234.05 12039249.1 11958065.61 11298453.91 11230444.4 11807731.94 12289621.98 11081957.59 10952143.82 10928219.32 12743060.2 12219799.9 11822544.71 10846654.76 11776537.06 11694194.87 10514448.2 10309378.54 12090180.17 11154362.76 12162733.48 11761726.44 11500135.11 11423036.77 11520767.62 9299560.421 7742688.352 5866138.829 
3504337.567 6868704.024 10443933.74 11589022.49 12158813.06 11291990.04 10138258.43 11314650.69 11570913.01 11610794.44 12044101.55 11398022.39 11547081.29 11486336.8 11744774.54 12981049.82 12205045.98 12360529.63 10961448.12 12102085.77 11733854.78 11355117.09 11189848.58 12063738.09 12403997.82 11376039.5 11706675.61 10730536.36 10356345.63 12646099.41 11076385.35 10850913.38 11364963.14 11936366.79 10903926.07 12115574.73 10853109.55 10051243.05 7666665.503 4296445.875 
3795508.295 8466719.566 9932933.445 10984682.71 12048163.19 12262249.45 12198596.11 11618304.96 11629683.63 11375954.5 11901127.98 12128134.55 10831280.13 11689579.68 12446665.46 10777641.2 12245079.31 12315791.79 12167584.45 10884128.83 11339348.04 11542533.7 11034450.64 10611063.86 11899650.31 10866881.34 11674484.2 11326717.86 12072997.72 11213233.26 12385336.84 12156973.62 11976271.15 12023332.19 10624764.31 11801309.17 10403399.43 9715461.711 8045452.432 4112118.885 
4115106.042 8019550.538 8939603.542 11654051.03 11613928.7 11440169.32 10755369.19 11930897.4 10066817.68 12106956.42 11762812.42 11239625.73 12777809.46 11636558.46 11902920.97 12293849.86 11843817.97 11735549.16 12296392.04 10323361.27 10920661.01 11731565.88 12565412.96 10914485.43 11089296.14 12026425.47 11250471.43 11858120.47 11934875.16 11435394.49 12719859.68 11213773.5 11627241.82 11499242.66 11078788.13 12542296.56 10893436.53 9028433.116 7779221.648 5947759.188 
6036139.712 6608118.632 10166842.8 10980158.63 11449533.15 12309071.69 12075517.63 11786633.12 12627682.34 11572222.86 10829523.92 11307941.08 10170215.55 12593216.12 12698333.86 12322844.08 11082422.37 11939015.8 10566765.19 11229276.81 10496619.34 11501205.08 11593960.62 11432494.8 11149045.79 11926598.11 11809295.07 11787281.56 12256160.84 11450871.51 10506241.83 11502005.01 11387998.78 10992986.38 11907741.08 12200344.12 11902063.24 8862384.589 7549627.868 4238516.541 
4272296.413 8340766.229 9485210.092 11527626.92 12148543.19 12132745.84 11282530.31 12525314.43 11041078.57 12092895.53 10073787.84 11492674.51 11890607.32 12297046.22 11378625.72 11094144.96 11470702.8 12526804.6 10815923.1 11641385.38 10175253.92 10088761.05 10696165.54 11282214.48 12064048 12168917 11611743.75 11219958.14 12033963.16 11728530.14 11579133.46 12689288.68 12341309.9 11222834.2 11158146.61 11527796 10608521.02 9773187.254 8120559.238 4401373.585 
4215130.17 9045938.744 9435419.906 10346939.88 10648820.13 12228309.7 10458612.02 11908949.03 11794100.02 12045980.77 12784717.62 11830109.34 10970087.16 11690031.17 12757603.18 10713396.35 10932692.71 11402715.21 12539003.5 11920342.54 11223887.71 10602803.53 10527545.03 11367788.97 10978683.63 11047229.29 11259479.81 11032707.32 11126834.39 11571462.29 11639691.47 11615873.66 11144953.19 11897949.5 11706912.89 11780281.3 11026346.06 10245794.8 8358169.2 5498614.785 
4209065.704 6687190.828 9956374.236 11993775.61 12348278.64 11618463.43 11558783.25 11853524.09 12019709.86 11238643.21 10985065.16 12291399.98 9945201.287 11678412.25 11809677.8 10973250.76 11691383.49 11745068.26 11670853.78 9803815.642 11201209.02 11755756.77 11604816.79 10839967.49 11883318.01 11830517.47 10447229.45 11024434.78 11442558.12 12684296.28 11427584.41 10347809.88 11657580.93 10879945.54 12559800.24 10663436.95 11061328.04 10126825.6 8117929.505 4527944.221 
4199604.525 7535943.646 10095951.72 11000991.38 11277135.84 11500894.77 11440161.98 11500544.94 11097816.41 12551166.06 11416719.21 11414079.6 11700090.17 11519557.41 10224931.75 11108465.78 11235638.57 12671208.5 12199719.07 11463164.96 11314654.61 11553351.21 11693323.28 9781886.105 10945926.17 11756246.42 11663616.47 11183717.23 10894395.75 11059889.13 12214656.61 11203322.16 10284576.91 10491082.41 11170577.16 10221624.58 10514128.23 11147146.74 7955127.255 3933044.18 
3813129.603 7133796.738 9720293.766 11389828.15 11156253.61 11225684 10976065.54 11655788.09 10582931.04 10893178.99 10161622.48 11346543.2 11551001.06 11834836.73 10728448.96 12119809.08 12133557.1 10947072.78 11429747.7 11939969.43 11840200.61 11047506.67 11840378.76 11600658.58 11137619.66 12565330.3 11369157.35 12860730.77 11302631.08 11814178.3 10901887.85 10926868.59 10993958.01 12271947.57 11050854.05 11134115.14 11067951.59 8886535.503 6633617.03 4713836.579 
5044323.261 7980529.223 9404374.277 11837759.24 11132996.38 12340003.2 12050171.1 10800060.51 11395009.2 12134450.64 12273501.34 12145909.07 11113680.48 11219342.23 12328445.55 12751642.88 11707334.32 11426770.54 11719291.35 11407324.34 11640218.54 10714025.32 12684292.91 11607889.03 11291338.06 11658524.46 12121754.66 10867311.41 11130904.98 11066194.92 11225807.19 11077041.86 11407967.41 10363987.06 12403069.61 10657501.29 10754046.8 10501289.87 8361560.05 4438489.626 
4979909.983 7848522.756 9605673.75 11963564.02 11951013.12 11147524.21 12356401.69 11152300.04 10881365.95 11771546.45 12092940 11609946.58 11849783.56 11218518.96 12455209.08 12167695.31 12067309.12 11638391.89 11751691.41 11796640.88 11436859.62 10643750.77 11658843.37 12736336.4 11127065.66 9521902.699 10862477.85 11823480.53 10693277.01 11248015.97 11583456.52 11354268.97 10059375.19 11789354.7 12191253.83 10056881.3 11117019.18 9946350.517 7358625.44 5277407.184 
4208605.447 7531951.912 9870747.198 11683729.05 11272926.17 11939358.63 11764577.16 11353080.7 11286440.4 11899717.3 11781920.42 10836956.86 11540122.53 11977954.84 11963950.61 11573267.71 12155348.77 12166346.41 10796608.79 11156127.34 12199425.86 11380350.49 11403385.17 11803829.02 11531863.1 11326796.71 11472243.1 10103804.54 10852493.46 11165991.47 11034396.19 11096335.46 9785663.999 12404328.02 11807228.42 11838944.25 11033495.37 10005629.95 7065262.112 4951917.069 
4907861.467 7861325.348 10071774.93 11632891.07 11399835.1 11423091.37 11674749.85 12390753.8 11082079 10213742.77 12156940.66 11837608.55 11529156.28 11702644.43 11706792.28 12763498.1 12305036.09 11958652.35 11085956.88 10864438.81 11103801.92 11130050.24 11450973.74 11510541.2 11783183.85 11583980.07 10591616.17 12407807.38 12442198.93 11854995.31 10838696.04 12049246.97 11139774.63 11300140.03 10991705.6 11108782.61 10315227.13 9915258.113 7898949.633 3862535.657 
4514512.662 7246718.449 10205010.47 11382143.94 11303691.48 11164310.27 11093598.01 11552697.72 11687092.4 10964076.9 10580498.71 11105937.96 11860841.73 11987679.14 12026305.18 11148835.48 11924630.03 11885621.23 11762820.84 12266578.33 11291342.28 11654100.46 12399509.9 11914915.89 11782441.71 11073748.61 11874776.14 11274822.44 12004191.74 10975287.33 10837586.3 12142887.75 11127518.94 11345630.69 10754890.84 11918185.29 11460361.15 9965257.558 8618320.313 3941151.199 
5181439.708 8085842.283 9253816.877 10737153.38 11479398.07 12173889.1 12288073.54 10858902.68 11477499.63 11516801.02 12216418.26 11549906.44 10474262.87 11423295.17 10106610.08 12879006.67 12314835.16 11935266.3 13031594.44 11394110.93 10531952.88 11532006.1 11496618.23 11290953.5 12198148.2 12016467.6 11845924.07 11944642.49 12288116.99 10847919.42 11955739.2 12120386.65 11945609.69 11557954.03 12806345.04 11336491.61 11612496.37 10212247.82 7080071.284 4446305.195 
3576194.087 6906298.553 9558422.455 12504311.65 11632214.19 11382396.96 11361692.1 10519929.89 11531738.59 11307262.64 12753869.41 10566309.44 10701289.29 10005367.38 10960988.38 11143737.62 11442155.86 11239963.56 11225776.96 9720289.982 11326389.95 11583275.82 10366119.97 10861310.14 10396256.4 10967096.77 10988682.26 11336352.04 10256203.5 12375049.48 11535577.07 11320923.17 10327468.31 11687609.76 10734617.7 11223539.03 11913661.35 8728452.996 8107044.8 4227507.286 
4103816.825 7291335.04 10195207.97 11236146.54 10935842.28 11949616.45 10899246.69 11549488.19 10118599.12 10743317.21 11150476.56 10712046.23 11940259.2 11338933.9 11543469.54 12182737.24 11168713.24 10906782.8 10824410.53 13150563.66 11872270.03 10878548.23 11873641.13 11136399.76 10759328.38 11776867.18 10217423.61 11310307.15 11629008.45 12935123.91 11931951.73 10211355.29 11189067.08 10157100.32 11562698.41 10654011.53 11163891.35 8890357.196 7196047.404 5069922.918 
4184442.017 6608157.58 8264511.446 9974394.8 9953734.161 10014184.02 9663850.179 11050631 8882646.968 9156166.045 9328915.721 9860463.539 10081533.53 10671622 8925674.159 10332557.47 9400791.769 9707206.62 9783939.838 9476648.952 9799287.332 9491877.744 9593106.407 9978344.738 9476845.927 10290230.12 9221274.17 10037160.27 9307349.287 9290318.582 8665693.989 9194899.014 9684423.41 10276152.6 10831953.25 9354403.217 9023966.093 8587126.826 6779128.725 3126458.282 
1474167.103 4819341.778 6743335.357 7741475.724 7339841.526 7339823.794 7496600.938 8771178.018 7282822.953 8255749.319 7103287.263 6713200.712 8491793.598 8742121.444 7204322.944 6368129.707 7733226.346 7490846.903 7076978.325 7677587.006 8145391.937 6533540.955 8196840.808 7449259.885 7245014.256 7650488.958 8098180.124 8268935.099 6966828.792 7396686.894 7297366.738 8005177.746 8234672.494 7392334.285 9021684.158 8103906.181 7629094.526 5936519.96 5484443.967 3452263.9 
468554.6016 3042508.92 3587833.764 4576563.585 5224800.492 4839576.571 4074147.477 4351215.705 4028134.991 4209036.348 5220331.466 3995180.774 4360993.347 4772193.709 5149017.863 4666386.814 4517184.249 3979263.939 5016809.416 4801210.618 4557420.069 4144043.279 3724587.339 3845429.323 4045076.056 5130968.114 5177666.127 5890363.213 4443128.296 4968091.785 4345892.298 3892721.676 4639310.572 4388878.361 4203130.007 4358503.944 4227949.346 4092709.124 2940573.976 2517651.222 
# Events [m3/m3_1570866818.hd_vd] N:
23 52 74 134 124 130 127 118 113 112 130 116 123 108 130 130 110 133 122 115 128 124 120 104 111 98 97 118 130 116 123 121 117 124 106 111 100 99 61 15 
69 136 245 305 312 331 331 323 309 330 336 337 324 315 342 328 346 334 339 320 354 323 306 324 328 322 322 316 337 331 324 328 321 320 345 339 330 246 144 51 
92 245 387 522 508 531 569 541 514 519 564 473 547 529 522 518 588 521 524 512 531 513 539 527 503 537 524 531 509 508 558 553 552 551 480 526 511 369 236 80 
104 329 517 687 668 706 675 707 711 721 696 720 780 718 703 663 744 712 739 782 689 743 749 729 726 685 725 689 674 727 716 742 662 778 725 714 698 487 341 104 
125 351 541 747 733 750 723 784 748 754 758 779 723 732 757 725 749 733 768 753 740 725 834 767 731 742 685 765 743 742 754 780 757 722 770 754 743 545 381 115 
119 359 526 717 700 797 706 769 733 787 736 739 728 762 813 762 738 740 712 764 732 772 740 723 741 786 700 714 774 774 773 739 748 748 714 756 700 520 330 135 
151 346 544 771 731 733 721 785 765 764 751 799 729 742 743 771 736 702 718 752 735 706 767 735 739 731 772 745 774 745 731 718 724 774 760 745 725 541 337 132 
144 314 563 721 727 784 738 710 751 759 696 741 754 736 718 720 734 771 737 756 760 802 745 736 734 762 735 748 748 736 723 778 732 694 747 788 701 568 355 109 
107 307 567 717 766 715 753 771 761 799 752 733 785 779 782 766 721 734 735 767 791 765 769 765 772 723 759 772 812 733 792 749 711 724 737 702 745 559 326 117 
118 307 552 730 735 747 735 737 758 745 765 748 756 760 747 795 713 677 753 727 723 774 771 735 738 794 755 767 764 774 756 727 775 783 727 719 693 525 347 108 
120 324 541 782 707 732 757 761 780 789 772 747 719 751 738 773 781 728 776 728 756 770 805 799 764 689 702 746 783 758 767 693 740 728 738 827 714 552 350 110 
132 323 581 734 740 773 763 793 735 699 733 782 723 808 790 713 757 791 740 754 780 736 797 751 691 739 782 736 805 772 752 787 697 747 763 740 728 574 283 116 
122 369 535 769 762 752 762 750 751 705 782 796 726 810 797 709 775 796 734 738 745 751 720 719 777 731 714 752 713 757 772 739 737 787 708 728 730 523 342 133 
109 360 571 728 765 777 764 714 689 758 725 693 734 715 790 719 767 733 725 740 734 696 747 765 741 781 752 776 761 735 802 726 737 780 778 762 741 562 285 141 
130 326 536 754 779 783 772 758 712 768 765 727 717 762 736 737 735 728 737 754 684 730 752 753 731 736 733 715 760 736 750 729 804 763 742 736 715 543 353 120 
125 331 525 740 692 786 727 760 798 732 706 741 749 731 719 738 745 739 777 733 713 664 767 781 778 708 766 747 747 773 766 782 712 729 777 777 682 537 322 110 
116 331 548 745 742 774 642 765 767 731 754 765 779 730 727 781 732 713 749 751 732 739 746 733 781 736 752 738 746 732 713 763 773 723 778 789 748 501 343 111 
116 318 530 719 784 740 727 716 735 727 761 711 736 750 748 725 764 763 742 757 728 721 758 691 731 706 787 813 752 747 748 771 714 815 767 745 721 558 351 113 
106 331 567 714 762 723 732 786 771 734 777 723 722 757 776 751 766 765 729 757 763 725 769 767 788 804 779 731 752 737 781 712 694 789 689 773 684 560 337 106 
119 327 560 667 760 733 752 758 726 764 714 704 765 743 762 744 678 731 774 744 765 736 765 774 730 719 735 794 784 722 748 759 750 727 746 759 697 529 332 121 
127 358 529 749 758 746 724 745 742 800 752 730 711 759 737 772 711 737 679 755 708 782 754 759 788 764 760 755 751 782 755 690 721 793 742 743 677 583 336 107 
119 298 540 753 785 767 786 751 754 734 750 744 721 786 735 752 743 757 750 776 709 753 759 680 719 746 745 719 726 740 798 790 744 733 691 770 699 528 362 129 
123 337 534 736 790 751 749 777 719 770 710 742 750 778 781 745 741 780 788 713 732 782 750 724 746 785 782 748 721 745 799 738 774 740 730 797 718 513 331 141 
131 352 530 743 744 715 723 776 760 763 694 753 734 818 788 769 768 759 744 750 723 768 778 718 724 762 755 797 733 708 752 714 779 743 743 802 736 544 321 109 
127 345 547 741 766 725 771 768 763 761 692 746 705 783 765 743 743 764 721 726 684 737 696 765 789 778 720 768 711 711 733 780 857 721 725 745 667 494 347 118 
121 343 518 691 746 802 712 798 759 775 783 706 730 740 754 775 767 688 767 752 755 773 737 723 694 700 749 728 720 740 734 719 729 739 732 768 724 510 360 131 
121 314 538 693 807 738 749 752 719 755 730 785 716 780 713 782 734 774 727 700 759 733 759 710 751 760 734 701 753 758 787 749 711 753 793 736 692 578 305 131 
127 313 525 730 758 787 772 768 784 777 776 736 738 786 716 757 710 772 735 758 745 738 714 751 729 715 693 708 738 788 772 723 723 775 732 756 696 535 337 109 
128 314 534 714 755 731 782 712 752 711 695 762 798 775 737 753 736 747 718 769 733 750 791 745 765 802 755 755 733 741 713 740 741 764 716 715 710 524 266 105 
121 315 528 741 788 764 782 753 730 723 758 764 766 726 788 761 758 711 752 735 769 714 765 743 757 725 756 786 759 718 713 722 762 755 756 675 707 553 336 118 
114 302 552 757 722 710 775 706 744 720 783 755 732 784 743 756 790 798 720 760 722 726 785 754 752 782 764 708 742 758 721 747 747 795 753 704 743 470 323 131 
120 302 548 759 727 720 717 745 733 773 770 730 762 742 794 738 805 739 723 732 756 757 746 789 729 766 739 718 775 708 780 744 766 751 769 769 740 549 311 133 
121 355 522 722 740 783 726 778 729 692 758 780 777 781 743 783 793 733 756 714 745 725 763 731 732 752 711 788 783 756 770 771 731 735 768 707 661 517 318 112 
126 350 587 710 758 779 747 744 778 731 738 765 750 739 757 756 727 752 780 762 744 725 790 734 729 763 727 768 767 751 722 744 758 721 706 724 741 539 350 93 
121 312 540 737 759 728 740 751 715 783 770 738 719 713 737 715 759 767 746 755 750 798 761 757 775 734 783 801 744 715 746 808 753 772 735 779 744 557 307 120 
113 332 577 734 754 739 762 731 767 765 759 773 735 765 751 716 730 726 749 701 766 757 706 729 724 745 739 744 725 812 738 753 715 771 706 739 752 542 356 109 
107 299 513 705 732 744 691 675 624 726 717 743 748 717 720 751 652 740 693 783 737 727 754 729 722 697 688 728 781 753 730 710 737 716 700 731 742 496 305 120 
88 251 359 521 535 503 552 540 572 535 550 537 531 536 510 505 500 538 548 537 509 544 537 516 515 523 512 558 534 518 506 506 513 501 535 514 513 360 250 73 
50 141 219 275 314 314 302 332 312 357 315 306 315 349 335 342 308 314 320 320 308 334 307 300 340 315 338 328 299 292 333 337 326 324 332 322 312 216 156 56 
9 55 86 110 103 113 136 135 116 103 120 134 106 107 124 118 107 99 142 127 113 105 110 116 120 111 113 141 109 115 111 128 115 117 126 112 105 91 38 23 
