# Format: McCode with text headers
# URL: http://www.mccode.org
# Creator: McStas 2.5 - Nov. 19, 2019
# Instrument: /zhome/89/0/38697/TESTS/2019-11-20/McStas-2.5_CPU_MPICC/Test_Sources/Test_Sources.instr
# Ncount: 1000000
# Trace: no
# Gravitation: no
# Seed: 1574209704
# Directory: 6
# Nodes: 10
# Param: source=6
# Param: Lmin=1
# Param: Lmax=11
# Date: Wed Nov 20 01:18:35 2019 (1574209115)
# type: array_2d(40, 40)
# Source: Test_Sources (/zhome/89/0/38697/TESTS/2019-11-20/McStas-2.5_CPU_MPICC/Test_Sources/Test_Sources.instr)
# component: m2
# position: 0 0 1
# title:  Intensity Position Position Monitor (Square) per bin
# Ncount: 10000000
# filename: m2_1574209114.x_y
# statistics: X0=8.28749e-06; dX=0.0288391; Y0=2.20069e-05; dY=0.0288279;
# signal: Min=1.43312e+08; Max=1.5968e+08; Mean=1.51503e+08;
# values: 2.42405e+11 1.07663e+08 9.99964e+06
# xvar: x
# yvar: y
# xlabel: x [m]
# ylabel: y [m]
# zvar: I
# zlabel: Signal per bin
# xylimits: -0.0499966 0.0499965 -0.0499998 0.0499997
# variables: I I_err N
# Data [m2/m2_1574209114.x_y] I:
145501149.4 149947134.3 151521069.4 148042565.2 148251603.2 145761253.8 147120185.1 152663273.8 147857217 155234254 150320703.3 152882376.9 152769430 147201783.5 154402506.7 149101253.6 147880726.3 149017345.5 149809274.3 149650743.8 152630929.8 150906701.1 150181163.3 156112784.6 152169926.2 149349659.6 155254998.6 154915647 149507276.6 151861420.1 150333273.8 149850940.4 148676880.3 143614417.3 145751447.1 149640685.3 153232746.9 149302072.3 148499890.1 149271768 
151250889.5 146076463.3 155098198.9 148052758.2 153288996 150094599.8 150771912 150018843 149601854.9 152771477.5 152038921 149613172.7 152909423.8 155436473.5 149907412.1 146593970.5 154006793.7 155455075.3 145911889.5 153206897.1 150986011.6 154502598.2 153908574.7 149761523.6 148986687.6 153735692.2 151886536 151223618.3 151036492.4 149599279.4 152876230.7 146715825.9 149381417.5 147603645.1 151978022.2 151056926.4 148616645.4 145952273 153133629.6 151551765.2 
149960772.7 152378723.8 150605612 151080755.8 154249448.1 149084912.2 153428888 152854361.9 150203492.2 152733665.8 149936439.9 144846331.4 145545561.5 148782075.9 150860489 148664206.3 150825679.9 151767450.7 153471282.6 151599559.1 148606482.2 153431561 153714015.6 150779725.7 152782395.1 152626030.9 146606410.1 149219288.2 149003549.9 147390604.8 145985683.3 151600480.7 148597956.2 149646754.1 149064788.1 149045156 150895990.9 150645972.9 152121690 150374499.9 
149271734.9 153733669.8 150809140.1 147423893.5 153815373.5 148028421.1 150867966.8 154127656.6 148696051.7 149024888.4 153425187.5 151178457.3 152110507.4 151612498.7 156292449.2 152774214.9 152320065.8 150642243.3 150492291.2 152572817.9 149233882.7 153013820.2 152184101 152687332.3 151059667.7 149751858.2 149951179.5 149577869.3 149255892.2 149839348.2 150063527.4 151582834 148731602.5 152037635.4 147161863.6 152773921 150218805.5 150331375 152543450.8 150855093.8 
147785484.1 148794134.4 152310704.5 153334514.6 152795972.3 151644879.3 155361794.8 145548379.9 151382663.7 150120182.6 152766164.2 148854774.1 153658252.4 152103647.5 154888061.2 152863299.4 152374853.6 145324478 153306650.6 150071551.2 146501013.7 154358314 149740363.7 154567868 155243387.5 144978222.9 146301106.6 147641993 152708573 152038368.2 149527309.7 151012703 153225711.5 148067568.5 150925126 152115131.3 151595857.1 145847725 150169766.5 151094209.8 
151568363 152093078.9 144940251 148070634.8 152378307.8 152065061.1 153395143.2 144386148.6 150161038 153597861.5 144904602.1 149797258.1 151930440.8 152476837.3 148452186.2 151582998.3 149530353.1 150689063.3 155793941.9 153001424.8 150154994.4 150949491.6 150387690.1 154282890.2 151390175.2 149926891.5 151478583.2 152041273.3 150251030.4 148547714.3 150972903.2 153793178.9 150349678 151887729.2 157257052.4 153605275.9 155847631.4 154177554.5 149932694.2 150315844.5 
149029895 153680396.5 151620728.8 145705372.3 148028236.4 150420605.2 152014186.9 151949951.1 146228809.8 153908509.1 152615258.1 149498030.4 151707708.1 150351562.7 152070415.2 152387314.9 147326578.4 149776935.7 152548484.8 154944702.4 148878319.9 147786438 147110086.8 151138110.1 155640632.5 152002200.5 149416613.4 151580465.1 157728069.6 149921993.7 151974259.1 145937600.8 155751629.8 153535323.8 151835660.2 155849934.9 149570868.1 149512991.8 151506319.3 153759558.8 
152256680.3 155240423 150531438.7 148333385.1 146494365.5 149611813.4 148367519.5 148883132.5 149170097.3 152456584.5 153160913.3 146866792.3 150108435.2 152990372.1 154543168.5 151474645.6 149181567.5 146770237.5 152505249.7 154569086.9 154409890 153717868.2 150889508 149762214.9 151607717.2 151542640.1 149520281.5 153289482.4 154643787.4 152993614.2 150271650.8 153806561 155792556.1 145420249.7 153211880.5 151157369.7 152435507.8 151543852.1 148918284.1 153860766.1 
153757760.7 150179224 153413405 148050723.9 148567563.3 146808426.4 152771146 153119354.5 154783580.1 150886032.8 154233396.3 151012061.6 154731669.6 154587680.6 153176270.4 149255755.1 145520117 147343350.9 150064004.6 147985668.2 148236368 152792988.8 157229723.5 148394924.9 147132926.6 154787289.8 157645738.4 148668825.7 150648902.1 153785686.7 153853884.2 151733503.7 154535464.1 149202594.5 151313287.2 156355428.7 151684530.4 151905400.5 154281086.6 151942334.1 
153166294.7 151745971.3 152780471.2 148921686.2 150153146 151837924.1 156768860.5 148152793.9 152901433.9 151896825.5 152956812.7 153982763.2 150758173.7 148506397.5 152850299.6 149847571 155471918.1 148627902.5 153859997.7 153322078.1 151325495.8 156560605.5 155886556.1 148941568.2 152127662.3 156376854.1 149677663.5 153615127 151226349.6 154276165.4 154401717.6 151911237.2 152774408.8 154551978 155733837.8 152846646.3 156054546 148187234.8 150536703.4 150032744.5 
155109774.8 151050305.4 148786561.5 153643324.2 150550032.6 153284810 150780286.3 153912789.7 148333014 148012196 149981373.8 152324965.9 152316408.7 154633706.7 153679817.5 150006517 151994241.6 151875818.1 151524088.9 153087335.4 154110387.2 152322278.4 147972875.8 149415501 150893766.2 157544489.6 147070949 153701386.9 157595338.6 154122655.2 150108096.2 156908984.7 150295623.1 153463247.5 150668208 157045127.8 155138282.4 153354177.5 149773181.9 150110004.9 
148055670.8 152406897.7 144464348.1 149195061.7 152182264.1 153409893.4 152300444.1 149834221.3 147486797.9 145720253.6 154462502.8 152279111.4 151130781.4 152277821.9 146905524.6 150142839.7 149998904.6 151581112.6 149604086 152516507.3 157880650.2 147066611.5 153264168.1 152105327.7 150433536.9 151992144.7 155465362 151202087 147116737.5 158080204.8 155194788.8 146485459.8 152152989 147798986.7 151902615.3 150297430.9 151101698.6 151883316.8 151068806.8 150043440.2 
152398961.1 148575950.4 152822256.1 152043416.2 155005897.4 149897321.8 156149444.9 154213424.7 149718226.3 146696028.6 148564559.4 148943777.6 149330529.3 149036107.2 150959942.6 153340351.7 152127153.2 156737564.8 147667657.1 153398111.5 154236383.4 154035568.1 153008015.2 150196928.3 152267647.6 155374135.6 156370264.5 146361500.1 150098338.6 148907663.2 143436775.1 152909772.1 148802059.7 152599278.5 151466443.7 150050801.8 148810430 151123362.5 153793176.1 150667600.1 
148752005.2 151405944.8 151442431.1 154294282.4 152359751.8 150504667.9 156307533.8 149891255.6 156297503.7 152168218.3 152205203.9 153524794.7 150732808.8 149916821.6 156133616 151979788.1 153945775.3 153739090.1 151219082.8 148818249.9 150639664.6 151665149 152001854.8 155521953.5 149334008.1 154329966.7 154999380.5 151213957.2 153649055.6 154021723.5 149443583.3 148373393.9 150559725.8 150221288.2 151992213.4 146958335.3 148151365.7 149001366.8 151516765.8 152654379.1 
155744206.3 153268487.9 149730821.8 148748986.8 148128464.1 153795868.3 150769037.4 153862539.3 152158598.2 150173254.6 147712704.8 148311972.1 152078538.4 151493823.2 149960132.7 155646681.9 155336829.3 152976543 153774122.8 150527720.9 149469305.9 154413412.3 151810386.5 149052113.8 152050350.1 155784492 153929995 154701366.5 150618918.4 149490236.3 147811356.7 152940762.5 150799809.8 151262886.8 149083760.4 152961881.5 148567989.9 155060855.1 151555909.5 150395554.8 
150676189 154260715.8 154707529.2 151496635.2 152253017.6 152918790.2 150084640.9 147417831.4 153908119.5 151956395.7 152196561.2 153583765.7 152176076.1 155017842.5 153720281.1 150294988.7 152443926.6 147184898.4 151492861.2 154732497.6 152608983.5 151829258.6 150236123.9 154635267.1 153901838.1 153786447.7 151895201.5 152008073.6 151923528.9 149593865 147892695.6 147899860.7 150068397.7 147491945.7 149890913.6 152253223.6 155819008.4 153860735 153635065.7 148536637.7 
148747514.1 152867951.5 148887567.5 153888820.5 145021580.1 148536201.7 152221223.1 149346027.4 149073846.2 147283824.6 149148242.9 156189678.1 150227113.5 151836834.1 155342376.7 157917665 148804670 155706151.8 153392308.2 154690510.6 154561680.9 153352900.7 149721283.2 152349189.7 151976979.5 150313354 154524076 148788511.4 153381690.8 154961331.1 153763123.4 152871223.4 153505204.4 151864104.5 147688678.3 153994095.6 153379488.4 156612337.8 157016298.4 149671540.9 
152766632.8 152182275.7 151219206 151668444.6 150744952.5 151059535.5 152105005.2 149325351.6 152827900.9 149958373.8 155412273.4 155141579.6 157685533.8 152090584 151762589.1 157601237.8 157264804.5 152191313.8 153538425.2 151607548.8 148990047.5 153800674.6 152615009.6 151375752.7 154100699.1 151168923.1 149302733.7 152145362.5 152469722.4 147585260.1 149710717 149730716 152439645.3 152204592.2 148665442.5 150071641.6 147483928 151651293.3 148479708.9 149170750.7 
151192275.3 149116252.1 146977198.9 150187321.4 149899136.8 151554550.7 149720966.1 151427331.4 149099501.9 153303538.7 151318306.6 153914772.6 155935335.7 148436137.8 150724434.4 146352166.4 149469472.8 155806273.6 154900243.4 151189725 149609952.3 151732779.2 155862701 150507880.9 153059306.6 149171687.8 152787100.3 155189011.9 149786663.9 151127884.7 153651926.3 152904889.9 150926297.6 153632540.8 156235849.5 152988332.5 153548453.3 151621789.7 148649125 149127512.5 
149178984.9 153041240.8 148721277.5 155399985.4 148865835 152223934.8 153456588.9 147683953.3 156147191.2 151763367.5 155882201.8 152333559.2 154028983.3 153073918.4 154067282.2 152048612.8 148845850.2 153994728.8 151205256.6 157618261.7 148039682.6 153578481.5 155718385.9 146595142.6 148237812.3 156255049 150772246.2 152421213.6 151773552.3 154679328.5 158278636.4 149602754.3 152189152 152203760.2 154808983.4 151853203.6 150011355.5 154373590.3 148456777.4 152828454.9 
150116529.5 146069744.9 152179265.4 147151048.9 147462727.3 153678528.8 154452564.4 154585362.3 155361482.3 155246607.3 151008215.8 151996693.7 156341486.6 151131421.3 154665495.9 153723122.1 150378956.1 151570264.8 151557376.2 156899325.8 151706891.9 153111023.9 149909607.4 150022289.1 149322855.6 151906344.7 152712920.3 149408764 149857723.8 149102378.1 150440293.7 154107607.1 159679974.1 151638996.7 152878344.4 151139471.6 151007483.5 154237454.9 154309608.7 146938874.3 
152430668.2 150363618.9 148045114.5 151671395.3 153767226.4 155730737.6 149967402.8 152719298.3 153458023.2 150845763.9 151381999.3 156768699.9 149450071.2 151317951.5 146032025.4 147325451.4 153767285.2 154229747 156058435 153074038.8 151439812.1 150822407.8 150695819 155397591.9 152989375.9 152644776 148056130.3 149972616.6 153529357.4 152587294.5 149701405.3 151804949.8 151907849.5 153398647.9 153049256 149479127.8 153602054.1 158599685.8 152052330.2 152744554.6 
145351292.4 151086161.7 153245644.7 154295946.9 150506836.1 144703515.7 147745855 154576909.2 151231347.7 151366747.1 153684702.1 149807810 150394917.9 151899083.2 150735658.4 152338807 155572395.9 152049998.6 153798471.2 153819569.4 150961798.7 151264299.2 147829194.3 153615253.4 149178150.2 149833699.1 155606867.5 154535627.3 147923276.3 153528765.4 155625255.7 154141693.5 153506062.2 148863092.8 152479869.2 147449458.7 151772294.4 152797850.5 151215495.7 155934946.5 
151621167.7 156682220 148579120.3 156330962.3 152392118.6 146765340.8 148647530.2 154769889.8 153288363 150594118.8 153814971.9 152753055.6 143927468.2 151857372.5 154558142.3 157130641.9 153098159.7 149137986 151017996.5 152983689.5 151799956.7 148965705.9 148289896.8 148788235.5 155653558.1 153468126.4 150287154.9 153514041.8 149988887.6 149066059.1 148712464.4 149277530.8 147110126 150587795 150325978.5 154821984.2 148419967.4 155038170.9 151970680.3 155271292.5 
150761932.1 150871807.9 151480020.4 155208736.1 151829395.8 154292089.6 156395106.6 149369319.7 150842244.9 153716559.3 158407809.3 150537373 155570947.4 147780979.5 152489926.2 154708464.6 150517854.5 154461659.5 156605561.4 154244605.4 153863065.8 148404787.7 153111817.4 152961713.8 151433486.8 152736088.1 153307909.3 149759086.3 151751021 149866943 155526770 151077453.6 155440237.8 154052583.6 149367804.1 153736731.7 145794312 153273280.8 156041586.2 154071205.8 
146529943.8 149864722.6 149620579.5 154848728.4 151890383.9 149314562.6 154171871.9 150538836.1 155666614.4 154242837.7 154837329.4 152239065.8 148825734.3 148308677.9 153672623.3 155161314.6 152389284.4 154465773.7 151611681.6 151971148.5 153642101.4 154991486.7 148144187.6 152549514.4 150277745.5 153481362.2 148223345.8 152190107.5 156098412.1 148740481.9 154015840.4 152227727.4 147654173.5 149085938.2 156401342.8 153063427.3 149229439.2 146030393.6 152548618.5 153320394.8 
148611552.2 153980784.6 153385532.1 152482412.8 155144047.6 150500731.7 149863862.9 153047816.3 152842762.1 148256292.6 153891240.3 153888557.2 151759181.1 150300450.2 148856454.5 155076654.7 147044478.1 149903257.5 154879210.2 151069876.6 155816093 148696713.8 155456562.3 152150853.6 150043765.7 150779748.3 156433334.2 153552631.3 150243765.7 148550113 149880080.4 149209479.5 151218084.7 149561663.2 153825320.1 149164193.4 147031987 154453777.5 149967582.7 152091129.4 
152776736.2 147165335.3 152652361.8 150872927.9 154894503.7 152434877.5 151286114.9 148359245.3 156119046.8 152204862.8 151050530.9 151654407.3 148035075.9 152876679.5 152749052.6 153275402 157732504.7 151278978.7 151161093.3 152837618.2 145312812.1 152177314.3 154809234.4 154055523.8 154441516.4 149055575.2 153069032.6 159142734.6 149811322.8 155119154.6 149482445 152118162.1 150612092.4 151857590.5 146606282.4 153857007.8 154096233.2 155291655.5 148520923.9 148282071.4 
151922482 153393999.7 150440878.5 154082494.6 154074588.8 152272284.1 152435118.5 148570707.3 154259752.2 152480584.6 149436097.2 153274517 151812636.9 154407996.8 152184155.6 151991705.3 157542402.5 150227363.7 155132961.2 149325185.4 152730145.8 155546591.3 152954308 149477490.7 149451969.1 152489956.1 153048345.4 152110916.9 151677496.6 152080967.2 149694970.8 147884887.3 155827037.1 148878891.5 149996872.6 152288092 150069482.3 153628851.5 155822867.5 150103764.4 
150664591.6 153545853.8 150538275.2 151205187 148332275 150240074.1 156867883.8 155007915.8 150506550.6 148656412.3 157546666.8 155348152.1 152760732 154275891 151721333.9 149606689.6 148745162.1 157056781 153762595.1 154449825.2 147772965.8 152543368.9 147469627.6 149072541.6 153146820.4 145978278.6 154103436.6 153732489.4 145372611.7 150485855.6 153407326.2 154968480.4 146496107.2 147373682.4 145312145.1 156692297.5 149181112.7 150847162.2 148977533.4 151378494.3 
152906869.8 158054265.2 156719045.1 149183154.9 150589880.6 150586706.8 153248066.9 153752354.6 149202215.7 148931245.2 149393110.4 152226867.4 152885268.4 152289459 153892521.8 145843706.4 153148930.9 150188350.6 151501981.3 145874990.7 153359304.2 151985673.6 151664521 155135035 148507351.6 151404063.5 152811399.4 151738553.6 147763074.3 153489932.7 152693926 155651125.5 150670840.4 153087339.3 149576732.6 152847016.2 153760143.5 150518380.4 153408977.3 149038630.9 
152837343.2 146041317.5 149165593.6 149319353.1 150260812.7 146891184 150060595.8 151152321.6 152973159.9 151451663.5 152775468 151671443.1 149812165.3 151599007.1 151304851 151348968.1 148666593.7 152466717.9 155520527.8 147584191.1 154432779.4 153180023.2 154098155.9 151175054.8 154189113.7 150469497.3 150668975.4 152128547.2 146456361.3 150977335.6 150671364.4 149226938.1 153244474.6 151059063.3 148139063 151136634.8 143598922.4 152862228.6 152119325.6 154931185.4 
156819167.6 150830224.7 152886424 154961446.6 148801039.9 154049008.8 152118797.8 151000583.6 150424046.9 152105225.4 153813352.7 149338850.6 151268860 147856798 149973130.4 148271387.5 151478411.8 151370428.7 149110067.8 152090945 151659461 149695002.7 154671501.9 151444456.7 154629358 148306864.1 152737292.6 150061432.3 148764768.8 151976712.9 154252949.3 150527269.3 151709159.3 152130292.3 152635798.8 150360071.3 151267966.1 150381900.8 153215493.3 151962330 
147075296.7 151687432.1 147860761.3 145515256.6 152188950.6 152374346.5 152818291.1 157027536.5 154612877.2 147228882 149522941.9 149370098.3 150915796.7 152810485.6 148682860.4 150240814.5 155355457.7 147331739.9 146301030.6 152771015.7 152492273 150052344.4 152382300 148331089.8 153582160.6 150478416 152182726.4 153543374.8 149321618.1 148198523.1 151361859 145691662.4 154626859.9 150974346.7 155158134.4 149216087.3 148438569.6 148326245.7 154268933.8 148961259.7 
148646542.4 150191718.5 153159350.9 154049983.5 150683722.5 149926489 156292516.8 147439142.3 152255024.7 154551922.7 154593925.6 149175208.3 153204176 153052853.8 149997794.6 155007482.4 152301123.9 152877835.1 151750496.9 154432897.7 152246163.2 154175253.7 147815792.1 143311702.8 150335157.7 148428423.7 145765607.9 150725668.4 150611177.3 151478727.3 148866367.5 150524106.8 149849295.5 150536347.4 150299449.3 153872206.8 151026536.8 153617166.2 151441389.1 151834910.3 
156219762.6 149785393 151097660.2 153926077.9 151524768.5 153958989.2 149056209.1 148104808.4 150325367.3 146148465.5 149334406.9 150896515.9 150554797.5 152848035.1 149237296.3 153372300.2 155362235.9 145356877.2 148944682.1 151562783.4 156230181.9 152748520.4 151388615.2 151876164.8 153245720.4 147979176.3 154045146.2 154001052.6 152382670.1 153337604.7 157775995.7 151156072.7 148057514.8 152408515.8 149297583.9 148612069.5 150402439.4 152132782.1 149217655.4 152084725.1 
148153496.1 155466305.4 154316790 149887647.1 153363446.1 151854810.2 152861372.1 148994779.8 151177775.5 154535904.7 157132241.5 151208548.4 155102711.1 150476521.1 150878632.1 149987639.3 149955114.2 156057638.7 145291466.3 147280850.2 151145547 152309717.5 155683906.2 149400274.1 150384585.2 150119851.3 153955206.9 149875595.3 148246863.1 148083232.2 143444515.9 153140010.4 149524349.7 150538469.3 149736317.8 152141608 150780863.2 149755880 150927243.7 152553756.2 
147964917.3 153496166.2 150171340.9 148283336.8 147489082.1 150948930.5 150182290.2 148286447.3 152209754.3 150640291.1 147796811.5 152251526.7 153784229.4 152796396.1 156499599.3 154700918.7 152008024.5 150994801.1 150401290.7 150363377.4 154387338.2 147707850.8 151050236.8 149873855.5 148781502.8 153450704.1 155989553.2 156703522.3 149134982.5 151731514.2 149118091.7 149616545.4 152053547.5 148418738.7 154852077.1 153783822.6 153017039.3 151983280.1 147596790 153896548.8 
150143613 151503173.6 146954046.1 152217234.8 153479537 153906524.8 149171276 149755457.2 150810583 145954323 147788321.8 153387772.8 153920586.9 150782739.5 151211193.4 155448878.9 155229879.2 146925738.3 153606786.7 150578721.4 149540024.4 149151541.9 149543623.3 155620733.6 148972178 150262646.9 148979712.8 150875050.6 148696437.1 152443089.4 152385324.8 153276308.6 151317696.2 155647845.9 151328277.7 154907233.8 150173753.1 151862418 153952107.4 147742469.3 
151141635.8 146211072.6 153561229.6 150071079.6 150472393.8 153062483.2 153282974.2 151961990.5 144593485.7 150718059.3 152583567.5 154704231.5 147070835.8 151739063 153220125 150208415.9 150228625.1 154173148.3 150858396.7 156353512.3 152250602.6 151486586.7 150954143.1 153727650.3 153968495.9 151794730.5 148009270.7 150455307.8 150982470.4 153582611.9 152818030.5 151830316.7 151909280.6 156029768.1 152010318.7 153809392.2 151854081.7 148839321.4 149054843 152374627.4 
# Errors [m2/m2_1574209114.x_y] I_err:
2593938.645 2673741.419 2678715.01 2653878.368 2653731.444 2619248.487 2668726.991 2679621.158 2629740.23 2733752.919 2700210.266 2738048.451 2704875.111 2636238.222 2724365.768 2654268.333 2666336.954 2653331.116 2662053.842 2654688.405 2719865.671 2678773.946 2679675.363 2750077.349 2684194.938 2675028.829 2744802.475 2722184.615 2674463.94 2682980.205 2664073.083 2656877.374 2643680.775 2594850.197 2614199.926 2640913.582 2698744.91 2672920.399 2638167.061 2655284.669 
2695097.732 2620198.982 2730661.859 2652319.617 2706771.019 2676388.062 2710096.916 2656239.722 2669585.215 2715833.924 2700448.432 2677216.324 2701028.373 2726291.743 2671891.692 2633176.04 2730026.677 2739913.734 2613243.509 2695591.466 2671938.22 2734261.443 2707601.818 2666214.608 2669168.53 2710006.468 2696790.055 2680558.44 2681804.701 2658425.014 2689158.869 2632419.58 2680587.132 2651907 2684875.541 2674628.231 2655001.476 2627826.945 2710600.158 2675080.094 
2667017.838 2686160.179 2674376.116 2676784.317 2719832.976 2659775.799 2707221.772 2694787.829 2667864.384 2674744.116 2681691.355 2596413.819 2613460.852 2660942.954 2675811.298 2680457.611 2689686.552 2701917.792 2719834.551 2685754.68 2643519.119 2728045.163 2738544.244 2672427.909 2706397.473 2685054.267 2618113.04 2666978.928 2661135.779 2617120.302 2639302.074 2676340.02 2660274.786 2639870.687 2666593.47 2681161.167 2669499.876 2674701.504 2695539.083 2686257.711 
2649714.893 2722983.6 2705103.992 2630850.145 2711843.025 2649492.236 2688416.253 2714767.721 2665323.684 2648548.495 2710020.598 2693752.977 2699420.751 2681424.922 2743787.547 2718969.291 2716570.192 2661793.439 2681244.407 2684848.879 2659208.685 2739491.284 2688607.599 2697843.451 2678370.673 2658447.02 2672204.633 2663894.287 2651567.408 2670666.23 2698582.004 2701213.309 2655816.039 2715231.34 2649492.755 2704307.231 2677469.815 2690282.082 2673224.152 2680749.655 
2656285.802 2666349.75 2693571.788 2734860.08 2712050.396 2706839.207 2745484.37 2615551.971 2692692.142 2686715.089 2685184.9 2662206.025 2693627.979 2684055.864 2727568.774 2709537.278 2698151.317 2638065.864 2691564.804 2693334.733 2639907.279 2741954.706 2657141.653 2725001.69 2742611.548 2605919.338 2619851.583 2629620.322 2702613.503 2683392.139 2661569.439 2669213.04 2717200.262 2631349.83 2657387.206 2686926.853 2708970 2623456.818 2686646.856 2667476.291 
2681893.951 2686994.725 2612900.043 2626305.83 2703178.834 2718635.172 2727950.775 2630190.753 2670844.609 2726437.342 2621132.897 2689864.948 2715657.728 2730098.76 2660714.385 2679827.6 2662411.044 2707472.624 2729288.646 2722433.464 2659346.2 2684748.878 2694005.538 2725658.492 2683902.853 2668312.755 2696736.914 2705699.32 2664879.102 2641763.773 2703907.589 2738267.417 2687397.157 2701044.01 2757233.584 2713591.247 2725556.726 2697389.146 2679669.124 2667870.786 
2685681.435 2723570.58 2709810.052 2612474.537 2624955.158 2669022.682 2699952.614 2675044.018 2638912.376 2727314.763 2697066.403 2674556.015 2679164.456 2660892.493 2687809.796 2696063.709 2632610.251 2660139.76 2713562.656 2725183.705 2664116.336 2651748.94 2639171.399 2685489.052 2718867.249 2700069.005 2648435.2 2700184.472 2773446.155 2680894.561 2707638.239 2629214.496 2741538.466 2725125.423 2678518.784 2742328.342 2681270.017 2679409.685 2708011.777 2710005.463 
2688180.079 2723230.461 2670798.622 2640535.859 2624170.274 2674131.741 2632208.396 2658146.479 2686569.58 2684396.353 2709937.009 2639816.705 2674010.184 2713254.69 2722475.309 2693178.176 2654834.592 2644513.128 2715771.4 2744789.038 2740949.645 2732425.8 2678204.331 2663975.127 2711427.92 2687249.243 2655849.212 2726529.612 2725558.521 2696094.446 2668670.05 2714988.341 2736368.951 2631212.241 2701383.035 2679415.892 2704639.635 2693862.712 2651249.828 2721757.189 
2737975.751 2673095.662 2707360.742 2637230.562 2652528.174 2647083.481 2718740.775 2690774.858 2746810.231 2686398.745 2733319.226 2679109.343 2733321.295 2723302.602 2713144.579 2643372.339 2636455.531 2646918.852 2682191.392 2639546.336 2651179.034 2712541.108 2759949.773 2645510.605 2645467.273 2731720.201 2754564.727 2658278.469 2698054.237 2701857.612 2713204.443 2679462.196 2742830.941 2659436.425 2675916.07 2742101.422 2703482.407 2694094.782 2717089.607 2683572.328 
2696263.609 2700292.309 2695411.76 2654963.792 2655403.648 2706959.173 2782496.911 2668848.621 2704141.022 2680293.434 2703302.393 2697824.895 2718945.611 2663619.358 2708965.679 2682120.175 2739277.155 2665928.319 2707217.308 2717099.534 2664182.609 2751689.702 2742950.479 2647587.555 2704610.316 2742666.581 2669031.503 2703044.428 2691263.459 2721049.219 2723471.408 2692038.871 2714448.6 2736523.741 2731536.604 2709599.005 2769234.454 2655395.556 2674581.172 2672609.302 
2723434.614 2682057.028 2651438.312 2716752.513 2684644.22 2708998.218 2678644.525 2714181.474 2672635.379 2663818.993 2669025.84 2691829.414 2698803.348 2700595.231 2713268.064 2665873.359 2689545.099 2719141.014 2694461.99 2705911.032 2727594.43 2708497.823 2668807.593 2664854.399 2670065.628 2777142.135 2649103.453 2710112.603 2768245.217 2737503.731 2662316.478 2759063.741 2679166.929 2687539.623 2707034.607 2773116.227 2720303.94 2718493.141 2674357.97 2689595.033 
2653222.133 2701727.237 2597263.177 2636416.992 2689201.568 2708904.592 2697548.761 2677258.981 2658661.232 2610826.288 2716999.592 2683731.379 2669711.603 2691604.012 2656396.529 2659530.159 2680967.995 2709762.587 2680875.233 2693841.695 2742808.102 2641301.026 2726662.813 2709530.896 2703356.613 2687805.996 2727381.292 2689251.645 2648723.238 2776829.602 2748927.056 2648329.675 2731496.5 2632414.895 2697190.718 2696767.135 2675475.805 2678908.849 2687914.437 2663479.74 
2703385.804 2660935.516 2699531.797 2688145.461 2722119.331 2675295.89 2722269.765 2728235.94 2665407.411 2623918.924 2683732.467 2684082.566 2655840.043 2679858.564 2693336.575 2724827.014 2701803.719 2744344.197 2657660.14 2718924.204 2707782.136 2702062.87 2729567.781 2678166.165 2698957.95 2756742.179 2766891.738 2616445.417 2665583.363 2664752.789 2593728.856 2718077.309 2659382.678 2698212.66 2681360.504 2678060.008 2661867.863 2684034.492 2712499.862 2679643.217 
2648838.282 2680556.716 2687642.596 2745030.836 2686647.951 2690182.45 2761735.217 2664707.003 2734009.589 2711262.587 2717083.583 2711663.828 2702557.253 2704024.883 2770185.606 2719085.494 2719757.909 2717984.346 2702815.155 2681750.119 2678365.543 2692916.021 2701295.146 2759740.662 2658610.759 2710412.706 2707080.833 2667531.622 2717152.926 2704344.809 2661545.827 2659771.393 2688458.181 2671644.355 2690470.803 2632917.541 2633421.586 2656813.588 2689866.441 2707821.095 
2734890.231 2707306.808 2658661.131 2665149.079 2655538.513 2715136.19 2666267.362 2727225.747 2703736.84 2656851.895 2648398.719 2665568.318 2683581.198 2715062.909 2692839.572 2734887.089 2724968.748 2716701.495 2728780.15 2698300.341 2688245.63 2741079.386 2693469.876 2662965.083 2685819.111 2740550.743 2712209.893 2716896.69 2685965.695 2668583.578 2636249.631 2709098.051 2684149.561 2689758.557 2674934.246 2708120.865 2659362.762 2730150.844 2687672.363 2663883.951 
2689356.977 2721021.013 2715629.005 2665055.92 2696404.272 2706154.607 2661407.237 2656608.552 2700286.887 2704005.504 2703883.423 2712389.129 2719405.075 2724135.472 2709395.654 2692100.941 2703637.389 2655680.356 2693481.139 2737543.774 2719809.759 2679113.275 2680119.441 2731972.703 2726981.589 2715127.964 2658858.233 2680376.437 2697082.303 2678832.581 2664847.996 2656285.272 2678782.789 2657751.255 2693160.739 2686792.357 2680772.635 2712965.132 2713359.435 2656599.771 
2660097.093 2696127.054 2653373.865 2721256.287 2625832.062 2662995.577 2690739.704 2654261.396 2691598.506 2608111.493 2685355.044 2767476.892 2673185.389 2702302.071 2740527.473 2765514.09 2679549.844 2744084.697 2708215.078 2752160.48 2741614.197 2720126.677 2660522.207 2703086.942 2709555.401 2675970.363 2717093.28 2651604.297 2700023.809 2739063.477 2729864.728 2716168.611 2722820.882 2704936.486 2648094.674 2716512.569 2702875.617 2756657.814 2750204.421 2679637.802 
2698752.658 2693696.383 2692682.931 2695793.209 2674144.872 2687814.935 2716458.077 2666291.193 2711396.969 2682458.053 2720111.298 2734058.583 2769480.873 2683020.423 2686023.522 2779237.32 2737157.339 2714140.642 2721464.65 2705325.883 2667558.992 2725833.805 2709365.61 2677651.068 2720145.734 2691055.853 2680038.787 2672845.744 2703650.779 2633834.614 2659703.171 2671875.167 2701465.281 2702946.661 2673108.039 2662685.005 2640796.052 2679414.966 2649021.507 2659678.493 
2669936.755 2647784.788 2644886.685 2656626.429 2684875.157 2687919.391 2668552.339 2700649.513 2654500.477 2715836.473 2712477.866 2710763.788 2751300.915 2659802.246 2674461.419 2648268.963 2663428.657 2746739.941 2730227.164 2690844.566 2675755.597 2675860.364 2736888.31 2675803.985 2715722.872 2667969.605 2707010.609 2738961.615 2686749.336 2694915 2709560.233 2697847.619 2705656.543 2706849.385 2765639.149 2716722.235 2728418.972 2703865.405 2662549.711 2652377.988 
2677952.189 2699526.979 2662197.951 2739025.219 2655232.107 2691134.24 2718774.781 2632549.87 2746676.155 2696154.504 2758873.398 2712112.519 2734381.741 2713575.87 2738144.626 2677161.089 2666583.288 2714589.037 2692275.375 2757807.222 2657028.531 2706149.629 2766038.533 2628670.389 2650662.062 2739662.461 2699534.904 2689536.37 2705892.404 2737517.226 2763832.947 2680606.952 2696536.832 2713883.405 2731772.857 2702287.972 2674612.644 2713577.853 2662835.839 2694305.532 
2671710.513 2604349.511 2687043.538 2628200.086 2662371.733 2710279.163 2712888.46 2728596.194 2716787.4 2750247.423 2683713.677 2689529.755 2744227.344 2691515.111 2740609.322 2709236.648 2678976.024 2705633.045 2711774.891 2754585.903 2695579.726 2723488.875 2690118.325 2680498.466 2668332.583 2693039.538 2711194.851 2677364.005 2687954.027 2664156.93 2672395.374 2727357.953 2780634.878 2715217.238 2690413.423 2707793.642 2709223.278 2726307.631 2723256.572 2630343.381 
2700190.686 2649964.644 2636903.996 2697329.61 2732395.237 2757576.258 2693533.974 2686392.456 2730339.521 2671190.262 2693199.056 2743554.225 2668999.572 2683835.723 2630000.863 2662792.167 2723575.2 2727608.188 2737101.655 2738092.547 2702764.383 2675828.537 2672810.747 2755873.901 2730400.73 2694807.095 2647357.762 2690470.873 2716306.081 2693900.991 2641760.279 2692059.449 2685463.688 2702589.674 2727830.968 2677723.921 2711715.627 2782089.309 2691819.832 2710617.974 
2621201.807 2655555.409 2704203.639 2700086.298 2677145.322 2619373.075 2633838.589 2722570.879 2693542.83 2697862.736 2713000.841 2680705.824 2659722.922 2689601.314 2686275.248 2679365.504 2741047.003 2686024.291 2705345.784 2709499.549 2663072.963 2698645.845 2633693.23 2713467.495 2670278.239 2680190.533 2731050.808 2712342.472 2668426.13 2717664.475 2758593.651 2743460.41 2707813.847 2661385.946 2696676.049 2628932.017 2695527.884 2717542.285 2702416.212 2738141.035 
2673465.06 2758172.539 2672950.032 2764134.758 2689853.689 2637438.769 2672209.39 2728514.884 2712342.066 2661886.705 2715965.573 2688849.538 2606185.439 2715791.345 2719927.711 2757259.838 2724690.698 2660679.168 2681685.67 2712531.413 2688041.908 2665023.527 2670269.882 2670011.327 2754749.098 2707884.47 2699618.706 2692852.6 2677212.111 2671269.42 2676928.83 2677000.925 2640877.175 2673367.457 2694414.672 2750529.507 2667550.647 2714024.366 2716320.715 2737934.192 
2685370.588 2683149.85 2694633.199 2735114.299 2696609.749 2751092.035 2745080.051 2668096.022 2706519.927 2711317.985 2781848.313 2686522.473 2745094.788 2643179.81 2695977.381 2735140.875 2671169.575 2717334.662 2751643.398 2740862.224 2735315.887 2652873.575 2733329.763 2713895.628 2681147.248 2684707.84 2716737.081 2675704.347 2705308.599 2645423.487 2736183.027 2671941.861 2733744.512 2716912.399 2667016.104 2745877.613 2613433.902 2700141.257 2725567.892 2719318.217 
2626795.266 2662550.745 2676038.479 2710901.458 2683196.75 2647963.443 2729491.098 2683499.733 2734372.087 2719933.503 2735790.57 2697845.718 2647871.605 2670734.874 2726231.363 2736883.452 2692254.328 2736573.441 2703409.998 2716570.173 2717030.277 2734253.303 2639554.531 2696775.838 2674002.979 2719675.451 2662113.252 2710885.713 2735274.469 2652479.794 2713531.329 2696266.585 2630551.925 2662544.761 2748279.882 2729442.868 2655022.082 2643567.162 2701496.689 2700356.802 
2652596.133 2716831.023 2706648.752 2722226.796 2728461.168 2696546.471 2668932.222 2703243.096 2727459.483 2675405.38 2714219.93 2716740.44 2689790.81 2682564.573 2656801.695 2714326.492 2658025.208 2676400.159 2752843.686 2706113.985 2751572.982 2661802.897 2750113.305 2711330.531 2670136.27 2687403.533 2745862.704 2703713.816 2655487.987 2666976.258 2674998.203 2660068.339 2712476.52 2660440.488 2719843.433 2643558.158 2638899.066 2728474.214 2688823.46 2686289.707 
2695895.33 2637903.843 2700614.992 2672586.172 2719624.685 2699853.027 2710868.545 2669351.784 2754730.716 2695612.493 2689008.022 2684659.021 2634239.486 2715135.292 2717171.367 2721347.11 2768049.25 2691235.522 2673245.996 2706757.407 2620348.839 2713361.503 2716912.958 2723909.851 2739924.924 2661172.632 2699215.143 2790016.075 2679289.998 2746602.303 2663740.247 2697530.86 2682139.601 2693216.589 2637437.634 2731778.183 2698507.078 2723238.87 2657179.587 2667785.253 
2665470.435 2735613.63 2669373.421 2736682.45 2703521.279 2701841.052 2686444.45 2673782.291 2725380.247 2681343.556 2690459.041 2719725.181 2714523.049 2734105.998 2708428.607 2720173.763 2736953.965 2675260.759 2735835.402 2670254.254 2729263.869 2721118.984 2704385.674 2662397.423 2672050.695 2707689.922 2703210.317 2724393.132 2698662.56 2706322.929 2673020.857 2646627.073 2723689.384 2635050.281 2685526.432 2712930.849 2676909.324 2710207.463 2748052.446 2668622.451 
2693762.187 2690146.477 2666032.442 2708791.949 2620487.679 2679752.107 2775743.246 2740469.237 2686869.062 2667520.103 2750781.273 2706201.065 2723691.665 2746526.864 2706415.025 2684398.126 2673767.932 2758921.283 2714225.88 2726913.57 2668027.702 2725614.855 2632755.238 2647975.226 2706421.349 2636018.456 2726951.12 2718227.069 2633331.664 2691132.209 2720593.433 2731173.313 2638506.431 2641412.243 2603748.693 2730355.414 2655234.478 2681928.676 2654415.606 2695236.528 
2702547.506 2790768.036 2763608.902 2666447.224 2688788.461 2685374.797 2710752.617 2697890.718 2675808.055 2662456.377 2656910.111 2695715.264 2704135.578 2691298.595 2728949.541 2630719.28 2743550.836 2676198.676 2698218.478 2644395.915 2713784.403 2695450.749 2707153.85 2718228.596 2662344.371 2693025.428 2704378.68 2687282.553 2653930.953 2719698.343 2678439.043 2743228.567 2670742.526 2709239.602 2671719.479 2719117.733 2730372.576 2670338.473 2706172.312 2673269.265 
2712024.034 2608245.179 2683160.613 2654442.622 2673137.398 2652615.949 2662378.038 2699880.37 2705797.304 2723511.737 2693290.809 2691753.455 2686310.845 2706440.384 2664797.065 2716186.865 2665079.925 2707686.931 2747049.798 2633538.753 2723251.112 2719137.127 2736812.552 2699019.693 2722340.736 2692503.212 2678725.83 2705520.444 2653309.691 2697827.281 2655348.718 2662733.633 2699392.702 2660240.839 2648780.723 2661137.609 2598987.727 2706218.339 2679600.724 2719692.282 
2765921.856 2693587.69 2725668.573 2735296.419 2656644.549 2718922.105 2707208.81 2683025.981 2670014.712 2730018.993 2748578.631 2639435.103 2684432.629 2645078.873 2660950.828 2626942.064 2711032.997 2702475.448 2671001.731 2738003.672 2697729.379 2661536.031 2736022.499 2687555.291 2729349.266 2650838.731 2711720 2662092.135 2656018.998 2697683.851 2718143.393 2670921.062 2678794.195 2694437.079 2719780.509 2661466.802 2699024.602 2668418.804 2708194.615 2676541.904 
2636527.253 2672974.362 2649258.646 2626140.637 2699576.958 2710028.301 2701790.324 2749436.19 2723567.736 2654560.045 2692108.068 2668943.815 2673585.123 2705852.874 2684483.941 2685170.271 2745692.455 2647755.406 2619422.338 2710746.351 2664687.658 2679072.979 2688809.643 2670192.611 2704544.979 2703662.823 2696361.425 2720250.764 2676854.626 2638272.195 2682422.796 2617917.632 2733810.032 2672226.65 2744096.388 2659403.814 2652548.764 2648171.402 2718822.914 2645915.046 
2656863.668 2668965.468 2708865.545 2726888.962 2680887.024 2665161.983 2746490.197 2655415.569 2709045.56 2746112.62 2719471.448 2645348.096 2706900.854 2732222.911 2666896.45 2719637.065 2692345.08 2709013.299 2711933.905 2742521.214 2709473.007 2737319.194 2619260.983 2585246.616 2694487.059 2662683.944 2632377.958 2673531.152 2681628.104 2702220.104 2654665.328 2694985.581 2675825.636 2672418.409 2669385.525 2700501.094 2657866.496 2707436.632 2695687.302 2682825.382 
2724975.623 2667277.924 2662333.731 2701727.624 2690208.086 2731618.3 2675660.041 2643291.05 2693384.359 2628673.909 2651783.058 2680273.36 2673735.719 2722005.042 2683986.379 2715700.868 2751082.056 2625905.229 2654186.935 2690769.682 2737560.223 2706199.132 2691953.478 2691375.38 2709791.558 2642196.899 2709174.234 2701704.279 2694451.04 2738226.61 2757855.854 2698904.26 2655028.213 2700722.686 2674893.441 2651308.781 2677937.089 2701539.989 2653533.013 2671671.457 
2651955.307 2739068.721 2747598.09 2663953.192 2707430.742 2707578.479 2719246.509 2657594.973 2685730.479 2724710.8 2763242.52 2708107.356 2715089.475 2699704.492 2667510.573 2689243.248 2688122.887 2736884.127 2636195.113 2654068.016 2680528.01 2702067.177 2732894.472 2679289.162 2662930.397 2692901.077 2725669.045 2672550.528 2662807.52 2660299.061 2582970.086 2691524.879 2679948.879 2669868.594 2655758.058 2718487.314 2678770.157 2676342.162 2680914.099 2703719.812 
2642453.457 2709912.623 2676998.111 2647503.4 2620762.816 2694048.023 2689378.943 2642231.747 2703334.533 2670291.139 2663351.285 2712040.221 2719779.132 2710867.704 2749267.03 2724638.543 2689918.166 2698190.049 2666379.391 2688047.776 2729103.302 2644319.115 2681961.965 2670722.398 2667982.338 2715663.916 2755560.506 2779241.131 2646539.78 2704344.365 2667225.347 2659909.937 2694370.228 2647125.968 2738962.412 2702975.437 2696335.266 2703094.634 2653532.583 2725500.079 
2697955.983 2681747.403 2639923.66 2701972.692 2708469.616 2716754.575 2638866.331 2671857.889 2678927.987 2641219.715 2646065.644 2685576.673 2725392.621 2686800.629 2702805.659 2740763.621 2725852.229 2639776.892 2699416.605 2662257.075 2683205.024 2656311.845 2669157.524 2770098.237 2684402.635 2691489.083 2662806.585 2691968.317 2656102.773 2683778.965 2703410.678 2696327.922 2689330.063 2752164.907 2670798.22 2746429.552 2675447.105 2677840.417 2724829.709 2634035.735 
2662240.801 2630421.361 2722494.964 2656168.131 2676797.868 2719045.022 2715117.028 2696345.083 2623103.325 2675438.65 2700161.235 2722244.064 2647969.251 2703283.262 2718131.369 2673774.622 2705172.977 2721656.694 2697075.156 2740196.361 2710157.185 2686800.743 2686106.402 2696339.475 2707871.376 2699600.479 2626964.952 2682951.227 2686226.85 2701922.681 2688703.356 2689659.503 2687237.216 2756896.036 2683135.667 2721321.051 2698592.749 2665652.726 2663643.077 2705221.742 
# Events [m2/m2_1574209114.x_y] N:
6192 6215 6316 6160 6139 6162 6088 6310 6198 6354 6116 6216 6253 6155 6367 6248 6102 6250 6181 6296 6220 6248 6279 6354 6385 6256 6306 6311 6177 6224 6273 6304 6167 6128 6299 6353 6313 6206 6126 6247 
6210 6149 6341 6151 6330 6281 6162 6243 6187 6264 6264 6166 6286 6341 6255 6129 6269 6284 6203 6322 6348 6294 6323 6221 6206 6263 6280 6329 6275 6260 6373 6164 6200 6067 6288 6243 6218 6237 6318 6227 
6261 6299 6309 6266 6292 6185 6291 6302 6219 6313 6198 6031 6192 6194 6169 6118 6121 6229 6243 6358 6257 6146 6268 6292 6313 6343 6274 6158 6186 6239 6089 6339 6182 6309 6175 6180 6222 6243 6291 6163 
6211 6259 6156 6272 6344 6199 6197 6355 6221 6258 6245 6215 6235 6270 6314 6181 6228 6295 6272 6382 6192 6264 6400 6286 6248 6257 6176 6245 6183 6198 6103 6265 6203 6184 6166 6263 6187 6166 6390 6210 
6187 6184 6245 6208 6215 6236 6358 6089 6302 6214 6415 6177 6337 6348 6441 6224 6218 6165 6412 6199 6042 6267 6272 6371 6374 6129 6251 6131 6249 6277 6296 6250 6277 6220 6343 6281 6251 6138 6188 6282 
6333 6298 6117 6246 6290 6149 6270 6064 6134 6258 6131 6127 6230 6246 6133 6238 6208 6181 6282 6321 6210 6295 6184 6270 6296 6207 6172 6231 6258 6230 6164 6117 6258 6277 6385 6299 6381 6386 6217 6200 
6185 6231 6181 5986 6238 6219 6173 6247 6207 6257 6372 6158 6317 6246 6245 6296 6205 6217 6314 6462 6118 6216 6139 6303 6411 6336 6233 6243 6396 6147 6346 6138 6358 6293 6298 6388 6287 6237 6163 6323 
6253 6371 6300 6269 6141 6201 6339 6185 6223 6331 6353 6185 6207 6268 6317 6230 6144 6183 6217 6251 6219 6305 6294 6243 6211 6243 6353 6285 6308 6267 6197 6316 6384 6118 6363 6256 6190 6248 6163 6256 
6210 6240 6303 6160 6229 6195 6187 6289 6300 6228 6270 6185 6299 6169 6309 6168 6086 6167 6201 6306 6147 6202 6362 6238 6221 6319 6401 6156 6170 6324 6343 6301 6314 6300 6335 6349 6181 6311 6275 6237 
6338 6193 6301 6179 6277 6209 6291 6160 6258 6218 6331 6409 6093 6144 6277 6118 6384 6125 6314 6269 6331 6324 6352 6191 6205 6327 6202 6289 6190 6349 6360 6307 6241 6183 6446 6404 6267 6154 6226 6342 
6325 6255 6271 6313 6210 6310 6275 6343 6130 6145 6198 6295 6287 6422 6246 6218 6280 6222 6221 6336 6315 6306 6225 6187 6317 6440 6110 6333 6323 6276 6244 6396 6212 6361 6113 6272 6443 6262 6146 6158 
6133 6261 6106 6235 6322 6337 6236 6208 6133 6149 6366 6271 6277 6227 6051 6259 6165 6222 6255 6338 6412 6110 6235 6097 6135 6245 6323 6358 6151 6428 6281 6086 6158 6147 6236 6178 6312 6349 6182 6333 
6309 6242 6334 6390 6388 6192 6421 6296 6170 6209 6139 6138 6263 6155 6259 6244 6274 6375 6159 6253 6317 6336 6211 6260 6296 6345 6355 6249 6191 6202 6076 6209 6054 6248 6310 6213 6221 6248 6248 6233 
6111 6328 6256 6276 6351 6162 6315 6302 6274 6287 6211 6282 6201 6164 6246 6189 6294 6269 6250 6189 6277 6303 6277 6328 6220 6372 6401 6310 6390 6358 6212 6188 6237 6209 6289 6130 6162 6235 6175 6249 
6365 6280 6199 6148 6179 6306 6260 6260 6251 6267 6148 6175 6334 6177 6170 6367 6366 6243 6243 6186 6088 6299 6186 6273 6346 6359 6258 6422 6266 6168 6206 6261 6171 6159 6127 6289 6149 6282 6220 6315 
6176 6324 6302 6358 6344 6365 6227 6113 6321 6229 6205 6251 6211 6361 6336 6191 6286 6097 6312 6293 6202 6319 6118 6302 6249 6379 6343 6319 6299 6201 6082 6238 6207 6122 6204 6284 6491 6213 6344 6199 
6227 6276 6213 6327 6097 6167 6254 6287 6170 6203 6137 6276 6172 6265 6263 6393 6180 6375 6346 6306 6251 6271 6237 6260 6295 6233 6292 6158 6294 6204 6246 6301 6287 6223 6130 6306 6286 6317 6316 6045 
6297 6337 6165 6213 6211 6258 6185 6173 6284 6163 6371 6295 6421 6302 6259 6207 6421 6250 6327 6217 6163 6178 6267 6255 6258 6266 6119 6330 6269 6204 6223 6207 6242 6180 6183 6245 6205 6364 6185 6258 
6311 6298 6074 6302 6180 6287 6281 6226 6183 6327 6193 6404 6357 6145 6249 6114 6225 6292 6217 6184 6163 6383 6390 6252 6295 6247 6248 6282 6159 6122 6276 6375 6185 6333 6263 6256 6284 6212 6177 6201 
6266 6382 6227 6293 6260 6237 6231 6275 6319 6313 6335 6186 6287 6270 6230 6377 6245 6305 6301 6368 6190 6377 6231 6213 6171 6331 6213 6290 6298 6346 6421 6205 6250 6218 6329 6261 6124 6253 6202 6299 
6166 6113 6305 6087 6087 6342 6400 6288 6426 6253 6227 6225 6321 6261 6328 6315 6221 6227 6221 6351 6240 6317 6172 6231 6153 6205 6258 6106 6108 6251 6246 6272 6388 6180 6350 6126 6193 6321 6334 6265 
6386 6258 6258 6214 6260 6281 6177 6337 6330 6322 6233 6376 6163 6307 6083 6169 6282 6360 6419 6277 6194 6273 6225 6366 6245 6301 6129 6158 6285 6330 6282 6302 6288 6351 6265 6202 6321 6388 6317 6277 
6063 6352 6290 6405 6198 6036 6194 6338 6318 6247 6302 6230 6278 6273 6178 6311 6395 6319 6350 6289 6296 6251 6294 6291 6101 6195 6311 6328 6094 6338 6257 6322 6338 6204 6224 6211 6287 6268 6192 6367 
6261 6376 6167 6348 6326 6158 6132 6280 6234 6173 6315 6403 6020 6205 6347 6390 6214 6205 6229 6309 6226 6219 6153 6238 6278 6237 6198 6322 6132 6118 6183 6157 6106 6125 6111 6253 6172 6358 6131 6297 
6219 6283 6281 6402 6143 6192 6299 6161 6197 6298 6335 6184 6304 6144 6298 6351 6246 6289 6360 6223 6213 6199 6258 6272 6203 6320 6246 6164 6306 6246 6311 6324 6353 6299 6195 6156 6074 6402 6337 6259 
6213 6260 6215 6333 6285 6194 6321 6235 6317 6291 6293 6283 6168 6048 6194 6277 6338 6276 6240 6212 6238 6365 6257 6263 6306 6310 6175 6166 6435 6188 6235 6256 6285 6127 6344 6291 6313 6113 6236 6403 
6160 6249 6257 6193 6383 6203 6241 6389 6272 6181 6306 6291 6294 6212 6139 6432 6092 6210 6231 6185 6333 6247 6280 6238 6260 6302 6354 6307 6347 6190 6220 6255 6170 6217 6300 6211 6148 6324 6191 6265 
6398 6128 6304 6250 6305 6401 6076 6193 6335 6254 6165 6229 6265 6296 6256 6262 6392 6236 6243 6285 6150 6264 6381 6323 6288 6272 6308 6466 6284 6363 6208 6318 6146 6326 6202 6337 6327 6263 6198 6106 
6318 6229 6268 6276 6309 6356 6334 6175 6359 6359 6153 6287 6277 6385 6319 6195 6430 6235 6298 6190 6109 6363 6254 6184 6195 6240 6316 6157 6281 6297 6277 6162 6313 6169 6208 6263 6281 6338 6247 6215 
6221 6344 6296 6225 6264 6223 6247 6265 6188 6175 6493 6376 6212 6262 6224 6218 6162 6302 6319 6275 6077 6180 6245 6210 6257 6177 6287 6292 6168 6193 6308 6372 6119 6213 6116 6361 6200 6244 6222 6210 
6275 6331 6284 6176 6209 6191 6246 6356 6186 6202 6166 6304 6260 6293 6223 6126 6161 6245 6280 6120 6207 6219 6260 6415 6291 6222 6308 6205 6156 6310 6287 6413 6191 6245 6162 6253 6203 6253 6363 6181 
6220 6155 6141 6224 6272 6091 6195 6208 6273 6137 6341 6234 6223 6209 6279 6122 6197 6252 6232 6240 6348 6238 6262 6180 6304 6161 6187 6187 6015 6220 6228 6201 6323 6332 6226 6316 6058 6224 6316 6392 
6263 6214 6288 6336 6254 6225 6223 6271 6280 6173 6245 6296 6206 6171 6216 6248 6184 6184 6199 6220 6255 6209 6232 6205 6317 6242 6301 6170 6197 6316 6356 6281 6310 6185 6226 6271 6197 6226 6267 6333 
6216 6320 6201 6087 6205 6323 6304 6356 6265 6165 6091 6143 6232 6332 6155 6200 6326 6191 6102 6287 6345 6276 6316 6195 6359 6152 6192 6311 6143 6152 6294 6135 6281 6255 6315 6248 6148 6205 6235 6235 
6128 6293 6277 6358 6274 6213 6369 6186 6207 6190 6321 6234 6288 6279 6225 6327 6202 6245 6240 6289 6313 6273 6258 6137 6166 6154 6072 6270 6241 6206 6181 6160 6184 6304 6252 6361 6344 6333 6346 6339 
6451 6207 6236 6298 6201 6289 6132 6162 6172 6109 6232 6240 6248 6236 6203 6254 6333 6063 6216 6281 6350 6242 6191 6180 6203 6168 6347 6381 6263 6211 6468 6262 6136 6289 6208 6254 6219 6205 6244 6370 
6143 6314 6211 6298 6266 6283 6260 6118 6225 6388 6301 6254 6373 6171 6238 6211 6092 6431 6101 6063 6216 6293 6378 6147 6265 6157 6254 6157 6168 6170 6111 6312 6193 6303 6278 6144 6209 6168 6225 6294 
6227 6342 6196 6224 6325 6197 6128 6193 6218 6257 6179 6168 6330 6332 6377 6360 6266 6302 6255 6208 6272 6140 6311 6136 6164 6288 6246 6283 6252 6294 6241 6205 6244 6258 6278 6339 6314 6235 6160 6282 
6207 6325 6121 6266 6252 6383 6261 6165 6184 6078 6204 6277 6232 6185 6255 6369 6383 6009 6367 6328 6115 6203 6253 6218 6179 6153 6195 6257 6214 6244 6286 6363 6230 6329 6316 6266 6234 6390 6283 6221 
6332 6175 6241 6374 6246 6284 6252 6280 6077 6266 6273 6425 6110 6153 6246 6251 6117 6433 6192 6349 6281 6272 6180 6375 6348 6276 6237 6231 6333 6326 6355 6158 6339 6393 6313 6294 6219 6197 6261 6222 
