# Format: McCode with text headers
# URL: http://www.mccode.org
# Creator: McStas 2.5 - Nov. 19, 2019
# Instrument: /zhome/89/0/38697/TESTS/2019-11-20/McStas-2.5_CPU_MPICC/Test_Sources/Test_Sources.instr
# Ncount: 1000000
# Trace: no
# Gravitation: no
# Seed: 1574209704
# Directory: 6
# Nodes: 10
# Param: source=6
# Param: Lmin=1
# Param: Lmax=11
# Date: Wed Nov 20 01:18:35 2019 (1574209115)
# type: array_2d(40, 40)
# Source: Test_Sources (/zhome/89/0/38697/TESTS/2019-11-20/McStas-2.5_CPU_MPICC/Test_Sources/Test_Sources.instr)
# component: m3
# position: 0 0 1
# title:  Intensity Divergence Divergence Monitor (Square) per bin
# Ncount: 10000000
# filename: m3_1574209114.hd_vd
# statistics: X0=0.000353427; dX=1.66213; Y0=0.0067854; dY=1.65596;
# signal: Min=3.03373e+06; Max=1.93141e+08; Mean=1.51503e+08;
# values: 2.42405e+11 1.07662e+08 9.99963e+06
# xvar: Hor.
# yvar: Vert.
# xlabel: Hor. Divergence [deg]
# ylabel: Vert. Divergence [deg]
# zvar: I
# zlabel: Signal per bin
# xylimits: -3.14533 3.14166 -3.12641 3.13945
# variables: I I_err N
# Data [m3/m3_1574209114.hd_vd] I:
3033727.063 11778348.66 18746044.87 25192033.77 27654607.45 28558269.4 27934497.83 26079768.18 28081030.42 28735619.38 26546057.59 27301317.2 29557598.93 27160169.71 26758115.57 27724111.97 28163531.73 28046450.31 25685360.12 25851672.05 29183809.25 27743184.53 28349171.1 29648622.24 29572268.58 26692188.61 28267932.65 26376124.64 30080667.04 27605637.47 25420741.1 27982460 26885944.95 26328200.43 26636930.09 26197209.76 25678569.43 18008046.2 12391250.4 4655496.058 
12196221.07 33098682.2 53206018.23 71757910.46 78368978.07 78286257.95 76021866.29 77668540.18 79022622.51 79286520.4 78468813.04 75853234.92 76202141.54 76318807.09 80538276.45 78050804.19 73692911.64 73317962.24 75350953.78 77251463.27 78645608.82 78754593.65 77751312.9 76439050.36 80157621.41 74790177.05 75770679.36 80924699.02 77853221.12 74950375.71 76339599.68 79080703.27 76489425.08 72904738.37 76724625.65 75327690.63 73369701.11 55681463.5 31073645.02 11152978.54 
17677465.48 53384035.58 91422436.65 116309028.2 125116153.1 125987016.2 125412510.8 126157448.5 130191150.1 125427480.8 127802494.9 129462106 131912291.8 130870162.7 125525352.3 125661974 131141281.4 127236061.2 127075705.1 128423802.2 124562183.3 129240634.3 132571122.7 127481626.7 124330767.3 130009690.7 127130425.1 129586043.7 129785551.4 128363848.5 127363341.7 127708282.8 126574789.3 125356377.9 125400903.2 128090759.2 119542827.9 90427191.04 55800839.01 19595717.12 
26197030.82 73372580.98 120126504 164937137 178789250.1 169744363.7 173253131.4 173077582.6 174530524.5 174668414 174835332.8 174510036.3 177002069.7 174130148.6 168104953 175268458.1 169191329.6 172983345.7 173724124.2 171062002.5 175921844.9 174356292.5 170789066.7 174968922.8 174915498.2 175100366.7 174653573.8 172805679.6 170668576.3 170480240.1 174160481.8 171882406.2 167329050.8 166784682.3 167123768.7 174501556.3 175375690.9 119699030.1 76468951.22 26025172.09 
25924029.08 75711267.11 126077382.6 169881503.3 183694276.9 180158975.4 181803781.7 184020938.3 187627789.8 178461463.3 186790602.2 178459456.3 180769179.1 176464553.9 188028727.4 185452401.5 186116088.2 189024024.9 184899624.7 182842447.2 189012382.5 184439535.6 181750050.2 181776430.6 178687936.9 178271696.4 177803640.8 182419661 180426387.5 180203534.5 176934832.4 180620208.7 182334712 171989985 182537477.4 178422827 177313239.1 125363471.7 78277690.06 27985050.11 
24483340.34 77314995.19 129135398 175411317.6 177839121.3 179584872.4 183361577.1 178575345.9 182678494.8 181884239.3 177541042.9 178822870 179573372 183774098.3 185900903 179068774.8 178636578.6 181793769.8 181190117.4 188339928.4 183295871.2 187457807.8 180855732.5 181467210.2 182000833.7 178143463.5 183944488.7 175727646.3 181918744.7 182399515 186380358.9 179181160.7 183387882.4 181112518.8 183374263.7 187782043.7 174891994.5 129381115.1 75022967.09 27317465.75 
26722147.46 76733441.49 126908041.2 171417898.4 179802306 180426710 185718031 181630850.3 183316556.7 183983617.2 182545283.6 180987711.6 179661187.1 184520664.1 182849933.4 183975848.3 179965202.8 180456418.9 179601952.3 184557491.7 179732337.7 180779819.4 182955357 181555889.2 184863714.2 188495265.1 179693698.2 184050163.6 180506844.8 177603791.3 180925285.4 188298744.3 187531076.3 182663353.2 183313530.5 182492750.1 172395371.4 126217544.3 76565949.3 27634817.07 
28406859.62 77312295.43 127435858.9 168648626.6 180170195.2 176561055.6 178813039.3 181828468.8 185710870.5 182003043.8 180641555.6 180603439.1 183802311.6 178757596.4 184684316.5 185244018 179016346.1 183485527.6 181892525.8 182935349.3 184497892 178681521.4 186168646.6 180195134.9 182957634.6 182415304.4 181988561.7 184991813.6 180943488.9 182687960.7 179275607.8 179871048.7 183888752.5 193140587.6 182164278.8 183014444.6 173505421.4 128447214.9 76889897.65 29139532.54 
27504387.48 76303192.24 130690796.7 171168126.6 178363642.8 180419007.5 183200479.5 187050471.1 176682439.8 182371189.4 178878500.9 179607941.9 180522723.3 178906370.9 180608989.3 182101197.2 180102900.6 183228310.7 183718628.6 181866035.1 187788643 176890492.3 181452102 177851314.9 182314319.6 184193801.5 180635616.7 176663053.4 184652940.8 183871713.8 184101585.1 181858568.7 181602498.2 182489371.9 180918408.9 181029027 171225014.5 125493122.8 75816831.66 27267370.35 
27447748.25 78627372.45 122970582.5 171393418.6 175008706.9 180249639.1 183174597.2 180570848.8 177912002.6 180672660.4 182949313.2 177926323 176759055.5 182796612.6 184217337.1 184837825.8 184976723.3 183078882.9 179435840.9 184340348.9 182349499 182370099.6 185734891.6 178571879.5 184875615.8 180303811.1 181108239.4 185826052 187468361.4 184132265.4 190068033.8 180036028.2 186421935.1 183686737.4 182467812.7 183854002.3 171628577.3 133586414.9 77609213.95 27774401.25 
29256668.38 80880760.32 126681871.4 173883607.7 181448258.1 178760646.4 187397975.1 182045749.9 182101546.5 180007979 187753974.5 183060874.5 186154727.2 179234959 178922058.3 180445492 178378850 180609916.2 177331563.2 177831404.8 184802438.2 186218548.8 184669065.8 182562060.9 188831145.8 180518400.9 183662404.2 181607338.1 188181853.4 183851869.8 185657968.9 186157628.8 182463033.9 183173550.4 183436783.4 183903964.1 172768595.5 128366465.4 76413526.83 28664274.47 
26762187.35 78520411.75 124022372.7 179299990.6 181418292.6 185805275.1 179278498.4 180816372.2 182800882.1 183141059.4 174176969.6 186115113.5 184003817.1 185150645.1 181984087.6 179750164.3 179098601.9 184875147 180896529.8 185990032.1 183531060.3 185490552 182302643.1 180598339.3 184971353.1 182588610.8 182023538.2 184899797.8 178621257.2 180967649.1 179391211.7 183260656.5 187954429.8 183687725.5 183635688.2 184470212.5 178071568.3 128001815.6 74218120.31 26970612.08 
25645377.35 73330932.77 130225010.7 171469273.1 178020607.5 182606630.8 185235876.9 182583417.5 185552095.4 181496620.5 181181717.5 182049585 179478513.7 181194256.9 185182173.9 185416978.3 184830905.6 181404891.5 179909524.4 181707643.1 183257535.2 185811836.2 180698493.4 186776660.1 181167811.6 183056589.5 178491388.9 183347582.7 186085878 183073513.9 182056241.1 179921894.1 182690848 187184247.2 181555621 185605908.4 175505565.6 126695626 79265389.25 27722082.83 
27201234.54 74015794.54 129976076.4 169452329.7 184416457.7 182324240 179474174.8 186282380.6 180698682.6 183253026.1 183711924.7 178183647.6 181142168.2 183119059.4 180034761.4 180158980 183416798.9 182700277.5 181932538.8 181788011.5 183130705.4 181347960.1 182800101.5 180374614 182390095.4 187002596.1 186036132.8 188192495.5 183294662.8 179187700.8 180365096.4 181698884.4 178873745.5 181537698.9 181484556 183217571.5 171715062.2 127327480.3 81140431 26630931 
27853293.38 82260690.59 126486016 176094071.2 182898426.2 181236518.2 183523720.3 183420137.8 184042885.4 189692774.1 180845431 184233477.8 180669845.9 181030266 183200151.6 180560138.8 185397944.3 184451881.1 185699993.8 185392170.7 186984411 182323858.2 184056595.5 180774722.6 181756637.7 185836451.5 183297016 178928322.7 181565857.6 183698924.1 185778695.2 183118676.6 179918221.1 177169585.3 179323718.8 181282240.9 176602734.4 128012776.5 77476840.91 29343529.66 
26324131.13 76490619.48 124863924.6 166151596.2 179119450.6 179927601.4 184900781.5 178225454.7 182109589.6 181662577.5 181474042.2 178523968.5 187662801.2 186845783.1 187420529.3 179573327.8 183375558.8 186381459.6 179073887.2 184347739.5 187737264.8 180851368.2 183434547.4 183487762 183701944.5 183808834.3 186207469.2 179728236 176397002.7 180665584.6 179990573.3 180519295.4 184682657.2 180369273.5 184023900.7 180935352.4 171286934.1 127013092.1 76889677.01 24541216.51 
28407538.52 77628856.36 128057281.8 172921361.6 188783795.1 178600757.6 183583426.1 183655734.4 177226370.9 178335956.9 176382200.4 182233347.4 185869560.2 181329344.6 180551381.1 183144271.8 184913663.2 179616733.9 185804530.4 183321370.3 183399217.3 184817507.7 179925441.3 182444138.6 185497334.7 186254362.5 185393948.7 178916845.3 180920612.5 179517587.5 178161529 179758406.5 179312711 184450901.6 187753833.8 187757452.3 175547158.1 129446450 78862133.78 26396482.32 
25059440.69 78985946.86 126891799.2 171365756.2 180707068.1 182808395.4 178633878.3 178256166.8 183008480.9 178607484.1 185481640.5 190529315.3 184548936.5 187062454.7 182220399.3 185326432.1 181235433.9 182653218.2 180804839.4 189426041.7 181589452.5 182497791.5 180173382.3 180075798.5 182747406.5 178121271 181760275.2 182318328.1 185608437.7 185903273.6 181516684.2 186651772.5 181428178.6 188625706.8 183591639.9 181973661.8 170830669.7 129457921.6 78870232.83 27777578.83 
29284450.83 78921663.54 128512047 174621946.9 180457303.4 185366432.8 181480056.9 186892320.5 183456876.6 179811785 183191502.8 180884211.6 186411795.8 180766548.2 187035254.3 183357268.9 182303376.6 187846721 183518958.8 182493243.2 184014746.5 176953276.5 182716495.1 181459386 184775303.8 182835828.7 180588071 181580768.6 181082999.1 183971980.9 184119990.4 177046771.3 186130165.4 183371852.8 186545026.9 182780512.6 173859589.1 130460435.9 78703625.81 27614380.73 
24687582.33 73967589.64 124962356.2 172632567.4 182568513.3 184935670.3 181903610.1 184111993.2 181762364 183441274.5 184626195.4 188203924.1 186327304.5 181969274.6 180720940.9 181516492.9 182062402.4 185324021.8 187212474.5 181262881.4 182345180.7 184734441 183573128.3 183011586.9 188340197.5 182371413.8 184542692.7 181604605.3 184379070.3 187929761.3 180586275.6 181988920.4 183447514.2 177681796.6 186081959.6 179777293.6 173245951.8 125957450.6 79123037.79 26339414.47 
26737946.54 75437387.41 124628811.5 177474718.7 180144079 178930477.2 182442188.3 179574783.5 180184243 179868904.3 187872459.7 182735001.4 183956730.9 181550384.4 179186326.2 185383432.7 176496706.4 181836080.5 184802135.3 188612640.6 182532917.8 182898930.5 181101102.6 182808537.7 180689529.2 179164889.1 183581420.1 180221908.6 182804232.5 180065433.2 185488474 186394018.8 187510005.5 189025916.3 179116001.4 180720817.4 172003781.3 130636144.2 80003469.57 26815717.17 
25486413.31 76640206.94 125413886.8 173793924.2 182259850.5 179889223.6 181101663.7 180466992.7 185338457.7 183364670.6 182290282.9 183044990 181895987.1 183711219.8 185880390.1 183285947.8 187120707.7 188584190.2 181023365.3 182128195.6 183774370.6 181773922 185880834.4 181706801.4 181579879.6 182733622.6 181635996.5 186134818.3 180438451.6 183542460.9 181033150.1 185837340.7 180811625.4 177196418.4 188270355 181049645.2 178972644.1 131761439.5 76181825.55 28048013.48 
27306097.4 80773918.07 124319801 173109749.6 186458040.3 180723116.3 181547187.7 184336723.5 186662535.8 185509972.2 183680972.1 185825088.8 181619000.1 184173439.4 181516388.1 183227385.1 184177075.4 185374053.9 180691488.8 185972152.1 182909865.6 178527420 175865953.2 182086752.6 179678511.8 184775983.4 186042338.1 180733245.6 179805689.6 183184461.4 185943141.5 183713173.5 182650779.7 181329359.1 183692931.4 181567478.9 172162698.8 135472475.9 80092036.74 29593496.18 
25650341.45 79444562.31 124261629 169900700.6 182772724 189185697.1 180221272.4 179529936.5 179976658.2 181963190.6 186650261.7 181755297.5 175771631.3 183689215.5 181596196.4 188454937 186743621.2 181945916 184101184.3 187273936.7 180807749.1 184113879.9 181535935.9 188807325 183954287.8 183815521.3 184372164.9 184159899.5 179829365 183981497.5 182383894.1 181444860.8 184840317.8 176189855 181826519.6 184903468.5 177162649.9 129757710.8 78504620.58 27785992.96 
24768291.83 79725674.86 128721023.9 175898855.1 176172733.9 187094119.7 191210973.6 179077774.2 180101050.4 184825819.8 181408153.8 184890032.4 183068261.1 180655153.7 179833482.4 189826836.3 181856642.9 180526284.6 186325194.2 187199639.1 182455070.2 185050247.5 178964519.1 184847652.8 177304186.6 185080324.8 181111586 180639272.6 178711039.7 180249509.9 181162912.9 183142348.4 181547517.7 183441825.9 182179110.1 183214457.9 169727469.4 130569381.2 77928630.15 29134342.02 
26320383.55 74014183.06 125912924.5 174113410.8 180187837.9 184365529.5 182497569.1 184259500.6 180606512.9 183129460.7 187265794.2 179918754.9 176862215.7 184556893 183553577.4 179513105.2 179831774.6 183404085.3 184012659.8 183070584.3 180436176 182127572.3 185523560.3 181962578.6 190363119.1 182171353.3 176814311.1 187408039.3 186411287.6 176456040.6 179152816.2 180097134.8 184967192.1 183591472.4 182507916 184398189.6 177268426.8 124822413.9 79139049.96 26933872.17 
27631080.28 76004475.53 123385180.1 176169783.9 179711560.8 185572982 181490476 183762414.4 184686210.1 186069105.2 185890944.7 182105079.6 182634647 190199322 185175243.2 183260697.7 178868815 186453769.1 179525568.5 179513020.4 183469348.4 181255236.6 182351357.5 182752618.3 180160906.6 181791126.1 186648018.6 184473719.6 179575762.8 179950444 186296082.4 179608563 179730832.8 180835081.2 180988800.2 180979256 172783541.4 125151616.6 83729817.46 27391275.1 
27154633.93 79063381.07 124863525.4 170332115 183690820.6 185317541.6 188570912.7 182188422.1 189431360.4 182668992.3 182832551.1 180609047.1 182479213.4 181420048.5 184875057.3 182273542.2 183020227.4 185066810.8 183212644.1 184696512.6 182212365.8 179521754.5 181586821.9 181897540.4 184685338.7 182411815.8 184277599.6 184610496.3 182560884.2 179995889.3 183624622.8 184195511.3 183560891.8 177822067.7 183769462.6 182174299.9 177459763.5 129800968.9 79347890.31 26162026.73 
27134611.2 73370748.09 129515121.5 171706312.2 184501087.9 185956691.1 183788970.2 179966096.9 179915373.3 182322210 187486296.6 181923599.5 182108029.8 182087947.5 187241379.5 179536083 184652457.7 189537103.4 179365958.4 185890423.5 182533712.6 179266213.4 184888804.5 181880713.5 185710680 180128028.1 180812621.4 180594639.8 179739890.4 185192569.1 185659562.7 180430193.6 185022129.7 178113879.2 186155511.3 176687552.9 171816482 129193632.6 74806548.61 28132265.54 
26503157.63 80475907.82 127169447.9 171260685.4 182995750.8 183545834.7 179974804.5 179388833.7 183829809.8 182207258.5 179041803.8 182516803.2 183780849.1 179338969.6 184715708.2 180187257.5 181042420.8 182856200.3 184769924.5 179108757.6 181275092.3 184275637.5 180209989.6 176954333.9 177286148.2 184892866.3 177644303.2 179431460 188863665.9 181927795.5 184918044.5 179523211.6 180709911.3 183615863.9 181020976.7 181497180.6 171007056.5 127130070.5 80270359.17 29639670.6 
27360370.29 76581666.17 130431882 172711687.9 182816034.9 182253979.7 183257916.4 180014011.1 181968120.8 180680770.7 177242703.2 177445436.7 186371311.6 182493681.3 182576525.4 180077289.6 177918969.1 184691648.3 186428487.6 176305145.1 181507444.7 186792409.2 179613628 182470317.3 183999552.3 183698755.1 182686873.2 182685647.6 187029112.7 181846657.3 182376584.6 183172283.6 181663179.3 183596247.4 179697748 181669052.2 171561135.8 124456213.1 78137616.88 29460852.55 
27478260.93 76215456.52 128883534.4 174379343.7 178224987.4 185295396 188624443.2 178990464 182962824.4 181279520.2 183014509.9 181377792.3 184839056.3 182094434.8 183013601.9 182584131.9 182421246.6 181316978.7 182756197.4 182644373.2 184062186.2 187896370.8 188847605.3 181441994.9 179662386.5 180662978.6 181460626.3 179272422.6 185886712.2 177574877.5 185357145.4 178075460.5 189732466.2 180937382.2 183975335.1 187655953.6 176381416.1 125891650.7 81347151.52 28799248.96 
27708656 78007685.37 131425505.5 167375884.7 181922603.2 180517687.3 180688720.4 181870242.7 181559645 185251132.5 181782461 183355646.5 183480186.9 186900677.3 180170468.1 176193059 179422528.6 179956571.6 183669895.1 184230646.1 183181440.1 178900517.2 182617767.2 175657342 179418392.2 178720880.5 184132792.8 181922252.2 183667931.3 180166311.2 187956432.5 179511298.7 184414316.9 181602108.2 180867365.1 181185039.4 169324653 128340066.8 82466837.74 29224597.28 
25677549.75 76861939.47 127242898.3 171205493.2 181317579.3 180212362.3 186259694.8 182222680.1 180733957.1 181874405.3 175700012.9 181499309.9 181040066.9 181693469.1 175004694.1 182951707.6 183114111.9 182626598.2 183772185.2 182965500.3 185310425.4 184298018 179147948 180507669.1 180422297.8 180067481.9 178103985.3 181917630.3 181588284.1 179632647.2 183398374 180479047.6 180872002.1 186344352.9 183156502.7 181578336 175175185.2 127839026.3 73535454.9 28160720.15 
26340368.48 76922625.29 127473960.3 175434027.6 183454157.5 186842417.9 182878938.7 181788699.8 184284246.7 180123326.2 180639429 190849983 186193554.1 185767289.4 187565333.6 181798752.5 180360970.7 182972323.1 181412697.8 179378647.1 181141698 184903580.3 189082081.4 176931090.9 181200578.1 186212866.8 184408127 180193257 181598781.8 180949243.3 179815175.9 179500128.8 177212406.6 183992648.6 182264158.5 182286478.5 170272821.3 122997406.6 77399082.3 26721170.92 
27073082.24 76944935.14 124426810.7 171724479.1 182431758.5 182311202.3 179045654.1 178757291.2 180115117.4 174797525.9 188507743.2 184441698.8 188708011.1 182776631.5 180496104.2 177247913.8 181256475.5 182739464.5 178625721.7 180931927 181146360.3 183826541.6 180144748.3 181900864.2 183176491.5 181651514.5 187921593.2 181990831 182616891.8 178184108 186338835.8 183387393 179032599.2 186406824.2 182622827.7 189886733.4 172981554.1 131177681.8 74134419.07 29711433.77 
23864217.39 71612425.01 120694813.9 165515638.9 176626786.5 173390089.7 176956967 175352235.8 173888580.3 167488441.7 175295041.5 170807761.6 172773737.6 174272852.8 174730077.3 179821849 173133900.1 171416381.8 172915868.1 170805987.4 178923660.7 176702660.8 173581318.5 177265615.6 169036999.8 171925128.2 172062906.7 170769958.9 177082712.1 171007124.7 175002552.3 174238002.6 175826469.5 166808001.4 172658790.7 173074067.2 166919580.6 120037212.1 69646081.28 28438532.18 
19617219.24 53258297.29 87905157.21 117327638.7 128626195.1 127494297.9 124924099.8 127335914 128039878.2 125343515.3 129645060.8 128583614.5 126166333.5 125846811.6 128535160.5 127022312.6 132615631.2 128170091.1 126719882 129080347.6 128553769.6 126978079.8 124152193.8 126680178.5 127087218.3 128192290.1 124658647.3 126494414 129062581.2 129862594.9 127599372.9 130555093.7 128594773.2 125824959.2 129553198.7 128669628.8 121307656.8 90855864.07 57373333.92 20294395.07 
10257812.99 29742617.99 50861034.4 73578104.66 81691901.57 78116126.57 75861780.06 75249924.31 75643963.49 76664409.08 75521968.93 78614854.9 76588599.83 77701472.06 78612377.54 77173074.64 78674294.84 75439418.26 77353005.67 74591066.9 76146700.18 74841639.1 77039309.44 77165513.97 78805111.75 78084442.63 71607382.03 79119214.3 77374192.1 82388009.73 78196815.05 75956083.11 74828820.04 79997219.3 80060627.67 79269984.44 72467503.19 51335759.77 32771249.08 11566204.27 
4494761.807 11490443.64 18690655.87 25366270.93 25721578.23 25656124.36 28077992.37 27894928.12 27767512.91 29563910.79 28249771.78 27800392.94 25716643.47 27364624.88 28629195.53 26882913.7 28213552.17 26672721.86 25951643.43 26723868.96 28544285.78 26759124.54 27254232.83 28916682.35 28168758.51 26956861.8 26053282.58 27498302.31 27037826.79 26896529.18 24633961.85 27889340.92 25207555.43 28671389.08 26578852.14 26974418.6 26869746.39 19099830.45 12256918.29 4069200.853 
# Errors [m3/m3_1574209114.hd_vd] I_err:
358074.8976 752096.3128 929080.5858 1074830.286 1183504.264 1142212.323 1150783.902 1115114.301 1153156.412 1193209.435 1118588.562 1146739.927 1205256.921 1147769.44 1098480.934 1140741.439 1172915.236 1161766.947 1082536.522 1100119.451 1199847.19 1143856.699 1153079.219 1203818.793 1201929.344 1093829.283 1169877.46 1117940.815 1213144.831 1157550.167 1085025.505 1190998.436 1131374.282 1100748.757 1100333.847 1111307.97 1078205.486 917030.2718 781524.1073 485353.688 
728713.4253 1244754.476 1591762.533 1847861.254 1937218.026 1920413.749 1897015.585 1909296.497 1956261.642 1945839.48 1947640.723 1892298.079 1904880.658 1894779.53 1997877.391 1941291.56 1878255.242 1870834.129 1863340.598 1911744.411 1922241.341 1944539.366 1924908.589 1892588.46 1976236.41 1876343.277 1917758.31 1972229.356 1911644.362 1876804.298 1890803.904 1943633.757 1879944.555 1853150.625 1885102.413 1882931.562 1867959.251 1637922.417 1202559.465 717125.3669 
905074.6151 1597438.581 2096059.099 2343418.445 2432106.077 2435219.882 2445154.682 2469460.883 2509384.56 2437470.647 2481914.748 2471374.776 2510457.261 2504441.181 2452033.858 2436906.825 2508522.691 2437731.97 2442737.071 2487167.865 2436191.044 2476908.712 2548254.376 2473381.065 2425878.171 2517595.293 2469417.311 2508328.62 2487350.528 2452649.707 2482086.007 2453531.093 2453815.693 2419431.875 2422038.324 2463038.36 2394396.013 2071114.783 1631349.284 937339.8578 
1120750.62 1855896.199 2384464.163 2815981.493 2928099.942 2802174.409 2907127.25 2884961.547 2881702.411 2897157.129 2901504.473 2901941.949 2916773.205 2875761.7 2818283.682 2912913.832 2845795.159 2900269.888 2892494.771 2823341.433 2905927.876 2871940.063 2843126.115 2908111.439 2890812.089 2893823.142 2854526.594 2868723.287 2819430.383 2846179.471 2876207.115 2853636.257 2800013.694 2810555.635 2805285.63 2882140.871 2917510.473 2376835.934 1915408.049 1114863.729 
1121684.055 1881539.533 2460854.575 2831042.868 2975533.812 2930712.345 2940565.052 2959428.815 3014316.971 2920827.431 2962826.25 2898180.038 2961718.518 2875862.899 2998127.417 2996045.684 2988106.642 3019110.052 2972415.185 2947999.691 3032281.337 2992198.213 2955840.363 2936854.141 2897676.351 2909304.083 2878900.766 2953996.653 2915188.52 2934451.33 2910062.81 2923588.637 2944546.457 2853822.686 2972049.458 2885871.016 2932338.253 2428357.534 1964345.635 1154938.474 
1056027.184 1914241.783 2490720.374 2908740.284 2897657.812 2923878.686 2949338.134 2902689.13 2951044.664 2953534.545 2894550.006 2892247.87 2917441.472 2972589.991 2982588.862 2912253.278 2917799.109 2961710.239 2921060.409 2999304.496 2976478.471 3010045.96 2930580.907 2946947.941 2936323.217 2887534.829 2959881.995 2872396.615 2926838.805 2959915.012 3003425.92 2914274.991 2967933.531 2913953.113 2971131.993 3025460.916 2847218.971 2504907.428 1853370.034 1127852.325 
1115500.824 1918043.404 2472237.727 2862099.005 2932175.485 2937964.006 2986788.802 2967128.359 2952241.992 2974009.287 2957057.494 2956401.255 2898105.653 2975356.825 2980897.518 2979148.438 2910901.461 2934886.195 2910048.271 2990259.137 2913308.914 2948341.06 2951745.397 2940810.167 2961416.982 3005642.195 2938967.385 2973013.226 2915256.039 2917189.604 2902753.515 3028017.204 3009844.165 2962385.857 2956019.059 2952964.619 2849098.698 2451642.423 1900754.572 1144304.802 
1187598.584 1941792.93 2481860.704 2816800.366 2930183.763 2892843.316 2914263.911 2941102.826 2988027.03 2939985.27 2924234.593 2933410.882 2969421.664 2906408.751 2966540.333 2949672.725 2948010.886 2958788.946 2972717.785 2968337.863 2991178.744 2905940.671 2978518.831 2942650.208 2970663.416 2940710.071 2948789.036 2991663.672 2957898.934 2952207.06 2921129.413 2935864.98 2957295.941 3075432.179 2952613.017 2948802.217 2891358.651 2481781.907 1913889.076 1181011.977 
1147721.054 1900559.934 2497168.768 2853480.679 2881586.317 2936770.385 2949925.331 3011028.437 2880259.478 2935638.598 2918104.147 2946180.211 2928457.513 2925521.574 2926883.377 2938688.954 2930362.06 2959186.581 2975637.6 2942241.137 3033695.083 2896873.282 2948760.449 2911249.479 2958536.5 2959884.647 2946606.487 2879882.562 2963160.826 2975747.797 2988384.659 2936773.89 2925266.595 2948915.681 2923274.623 2947209.136 2872673.562 2437450.6 1906544.597 1131173.039 
1147312.929 1935834.744 2413207.902 2869081.917 2872046.023 2911943.452 2947300.419 2928249.266 2937541.263 2949865.416 2967247.178 2912140.755 2892483.901 2948476.651 2984564.298 2962853.601 2984033.518 2967461.343 2927725.564 3000116.682 2936513.688 2953308.155 2981206.376 2954229.534 2987002.632 2907531.61 2946185.07 2990439.349 2982167.141 2971256.621 3044204.211 2952547.754 3005987.319 2963076.005 2942054.815 2966432.416 2877520.717 2538532.307 1919863.142 1134046.325 
1187899.866 1995831.889 2442015.786 2847895.846 2963241.531 2920703.007 3004006.224 2950869.825 2961975.628 2932895.212 3018437.421 2950227.621 2976287.139 2898719.931 2910696.014 2936129.504 2922970.727 2931333.131 2899925.888 2916417.414 2969706.438 2992654.486 2948523.209 2959969.741 3032767.717 2922213.141 2987004.171 2936622.379 3021901.106 2968695.616 2998118.778 2991439.083 2937109.817 2956378.536 2970664.9 2985699.649 2874495.698 2453606.024 1897771.48 1164247.581 
1137204.235 1919749.798 2418633.94 2929641.728 2946161.619 2988070.553 2916877.141 2927048.876 2963050.218 2955504.098 2856679.097 3009395.288 2985811.046 2985709.095 2968950.118 2919430.845 2934995.922 2973266.109 2953224.08 2979310.313 2989707.211 2972042.497 2956032.073 2942220.576 2998179.297 2951007.268 2965905.629 2976280.938 2909769.816 2934140.816 2921073.16 2965349.548 3013375.315 2959552.848 2967675.403 2995637.439 2922144.983 2464145.282 1872917.202 1126290.02 
1089693.001 1874477.839 2518121.193 2849157.639 2901076.641 2967809.476 2974257.868 2952808.006 2977651.761 2956702.666 2934164.208 2948578.761 2912649.471 2947271.981 2999001.233 2986890.629 2984731.632 2918220.95 2931576.153 2950584.2 2973999.713 2967719.718 2933892.506 3004605.366 2944949.317 2952008.187 2910145.465 2964381.548 2969103.696 2977962.009 2961163.836 2950841.214 2967608.821 2985800.781 2921032.213 2958039.784 2913546.968 2477572.63 1964729.208 1168353.861 
1141247.312 1858590.325 2502881.128 2818663.631 2939908.441 2970917.782 2915909.055 2977216.159 2914977.922 2945391.049 2958358.352 2910499.052 2955159.466 2977344.408 2932138.201 2922502.203 2982363.353 2951194.565 2963739.52 2954297.158 2951723.249 2943627.627 2957182.81 2946752.713 2942092.964 2988149.748 2990355.768 2998191.318 2964328.438 2934614.498 2941964.207 2944949.232 2913876.726 2918769.587 2967584.356 2946978.889 2846679.084 2483004.257 1961490.519 1119217.894 
1145648.824 1997280.27 2464851.666 2893846.647 2948431.096 2959357.294 2948463.342 2971184.076 2982983.301 3031349.454 2929032.785 2974828.92 2929801.99 2974425.295 2980557.825 2940692.813 3004666.635 2994119.945 3010741.644 2986801.861 3014507.402 2960877.935 2976944.204 2941464.881 2967198.215 2987325.224 2940905.69 2941279.78 2957325.957 2950256.706 2981656.257 2966045.282 2923530.058 2905994.281 2921153.862 2940013.66 2905798.35 2451369.765 1916096.145 1173863.158 
1119840.226 1897936.36 2433912.745 2801181.946 2902003.056 2903142.067 2973557.958 2915776.291 2967582.724 2961068.298 2948427.037 2926788.455 3021140.759 2991785.392 3004861.808 2899928.848 2973492.347 2997172.988 2916352.623 2995432.61 3031671.492 2935702.063 2951021.598 2969062.021 2971088.731 2946730.269 2972126.535 2916878.183 2871976.262 2925761.188 2936728.903 2924269.971 2968794.187 2927204.209 2967094.632 2936475.644 2849214.296 2460504.541 1918894.601 1068059.665 
1187384.435 1913580.345 2483675.747 2883180.796 3009490.193 2902182.141 2968010.337 2970554.605 2895121.415 2895560.644 2877959.622 2946021.642 3000867.115 2952713.164 2938958.125 2955874.919 2994680.48 2911954.07 3006350.626 2960164.654 2957821.864 2994605.931 2922545.483 2960664.264 2983248.072 2984482.701 2962274.133 2909709.917 2925790.61 2927167.274 2919690.052 2937242.58 2907389.555 2962950.721 3003365.481 2995572.929 2894284.01 2469015.231 1943122.17 1110445.848 
1074563.555 1932733.319 2441370.25 2840146.481 2935221.244 2961318.423 2914566.249 2917595.564 2964790.854 2895828.216 2998579.688 3035801.814 2966212.432 2999359.471 2966231.03 2984924.887 2942846.418 2971585.272 2951288.766 3033551.757 2950708.239 2967170.519 2928580.651 2927357.241 2957772.813 2914793.958 2948007.355 2958624.278 3010270.536 2979348.884 2955473.532 3019360.059 2971196.267 3025914.259 2980732.012 2931478.435 2838778.229 2473606.166 1948369.66 1147056.021 
1207245.979 1955930.989 2497168.964 2910028.17 2939128.164 2980686.468 2957812.99 3006871.692 2973690.473 2920660.874 2982014.29 2933869.421 3034170.944 2935118.912 2992597.018 2966646.149 2943806.123 3022385.66 2985962.354 2959709.151 2955110.2 2907556.398 2966952.802 2973885.988 2947798.385 2964173.449 2917102.127 2949310.318 2925692.292 2981112.606 2967722.579 2900517.658 3003529.165 2961156.243 2999820.36 2949998.275 2886511.478 2516229.253 1964485.969 1154344.074 
1054529.935 1867399.226 2420744.233 2870497.111 2957660.9 2974354.485 2929594.506 2964838.484 2939057.859 2958377.553 3004751.944 3020687.553 2996663.847 2949635.107 2949579.721 2956048.947 2956869.051 2997259.849 2992486.66 2962497.13 2952542.45 2996730.014 2958999.729 2947477.537 3034215.18 2955016.244 2993809.664 2940388.129 2970813.66 3021851.379 2947530.432 2957488.249 2966823.44 2911368.618 2992964.325 2917162.029 2877800.106 2448178.374 1944534.714 1091415.017 
1114285.945 1891732.064 2412151.232 2914491.376 2914240.42 2913720.026 2950674.144 2909271.61 2937010.804 2934433.555 2989946.106 2945378.233 2961702.107 2952930.96 2895359.323 2998434.703 2883980.322 2943806.36 2980746.177 3010103.518 2960488.809 2955145.526 2950642.307 2951454.571 2941073.334 2930254.016 2971237.903 2926384.967 2968635.886 2930891.283 2979901.13 3014281.791 2995291.986 3018493.281 2903716.462 2938436.15 2856188.044 2507740.769 1971514.316 1123010.066 
1096371.068 1896332.751 2435978.063 2869763.694 2935418.93 2909634.197 2937417.861 2928664.362 2981291.368 2962817.763 2969404.034 2959298.442 2948255.349 2985026.227 3010362.37 2953280.968 2986097.936 3041198.166 2940619.383 2957687.881 2962956.192 2959709.208 3017817.334 2949484.296 2950250.723 2991864.188 2943642.822 3009741.276 2917861.241 2960639.786 2955879.061 3001309.482 2941394.935 2909471.986 3042720.321 2942379.459 2916198.549 2539542.093 1909129.549 1158978.86 
1132650.113 1972437.714 2415154.518 2863940.992 3004914.961 2913280.588 2949756.456 2974884.986 3010464.645 2983016.696 2953708.185 3005275.693 2937245.895 2974503.888 2939537.813 2967345.15 2969677.598 2994630.838 2938338.766 3003052.262 2966364.277 2896067.98 2868482.92 2969089.382 2936242.005 2984844.547 3022444.613 2915338.421 2933384.248 2977711.408 2993991.947 2969733.657 2959309.808 2942192.405 2960996.419 2963802.365 2853600.765 2553643.178 1961991.627 1220139.976 
1101485.801 1933908.245 2433222.897 2857943.516 2964557.692 3024649.236 2930804.056 2934708.143 2936438.055 2936106.737 3012287.172 2941487.557 2866251.97 2959815.374 2962868.619 3016667.948 2999714.029 2935014.655 2973979.546 3007743.466 2939485.828 2971740.551 2945591.522 3009844.171 2973721.68 2962040.076 2988543.825 2983410.823 2927429.68 2950001.898 2955750.808 2947233.062 2998265.356 2898998.066 2938440.204 2988655.969 2909169.654 2504567.592 1951706.02 1156517.991 
1077791.014 1942489.291 2476934.612 2906207.457 2897953.762 3018178.449 3036374.044 2903458.43 2945911.997 2965930.778 2937624.087 2986026.652 2953362.043 2942968.233 2927232.545 3040071.617 2944594.696 2942227.32 2986996.299 3003345.392 2950000.162 2984231.37 2927121.434 2978994.758 2882522.777 2976560.995 2917990.953 2936882.79 2922047.019 2908262.371 2962320.826 2952018.308 2941120.018 2948785.627 2958860.281 2950959.204 2841927.536 2498619.882 1917121.018 1161277.982 
1122836.855 1884949.387 2465956.547 2868913.137 2944601.78 2983510.619 2972078.785 2975876.939 2934809.852 2961048.366 3027017.703 2916309.534 2885146.853 3011828.045 2967353.03 2888036.135 2945502.808 2943372.495 2971909.351 2954248.934 2924116.057 2955009.357 3005431.835 2963112.358 3034514.528 2957515.964 2901388.354 3027653.248 2991735.605 2857967.375 2917538.833 2927848.652 2953892.646 2970798.669 2967895.889 2989828.597 2920473.039 2429571.394 1960272.966 1139080.237 
1138908.681 1896319.573 2412439.585 2924757.831 2908149.958 3000742.216 2930092.527 2971442.276 2979386.914 2973439.452 2987871.435 2965437.327 2963735.196 3040354.18 2977357.956 2984294.7 2929972.626 3005024.081 2927389.309 2949927.845 2975397.587 2954766.244 2935617.613 2951059.666 2917233.974 2969254.631 3017807.714 2969820.655 2917558.118 2927837.489 3008080.665 2890283.801 2933382.034 2939243.327 2923098.329 2932291.422 2865940.862 2423577.598 2035959.87 1135967.457 
1127927.874 1929553.159 2422797.648 2841739.421 2971659.759 2975006.111 3045672.439 2953374.796 3035245.145 2971823.283 2972288.011 2951962.786 2966016.496 2915549.764 2988374.782 2941163.409 2968525.77 2990948.411 2977221.795 2989035.798 2956923.878 2944541.468 2966128.757 2972342.74 2992689.512 2943765.015 2974185.321 2979507.416 2968275.085 2929012.894 2979976.453 2962752.31 2969558.83 2879139.642 2965146.765 2926981.67 2920286.441 2518171.022 1983391.578 1100817.216 
1139326.276 1858350.361 2491148.151 2846684.148 2967900.212 2951484.598 2963651.272 2930242.788 2921163.814 2963137.811 3007220.997 2944140.092 2919936.753 2941924.539 3023004.608 2947527.665 3002157.062 3037857.232 2924599.679 2988708.71 2944676.919 2924964.969 2980364.493 2951426.992 2980554.882 2952569.327 2936810.763 2938206.08 2923912.672 2980310.029 2976580.054 2933540.33 3005956.757 2905587.09 3004280.484 2896657.983 2872570.689 2491918.731 1867282.706 1141267.492 
1109845.841 1969148.52 2456289.585 2872178.888 2953361.72 2989951.998 2924678.29 2923101.686 2967319.863 2957352.596 2904541.578 2982419.411 2967307.959 2918449.41 2993042.661 2948169.448 2932984.609 2958529.661 2989974.32 2911566.893 2941796.546 2985098.899 2941709.037 2936681.229 2890584.584 2981823.803 2922271.486 2922427.157 3016165.696 2918538.843 2970880.804 2912799.657 2921813.228 2977303.278 2910696.035 2943299.146 2844167.962 2454422.695 1969843.412 1227763.052 
1127238.305 1899772.709 2521363.455 2877342.964 2960968.989 2964765.206 2958739.043 2920071.257 2954281.516 2933898.378 2891693.201 2908086.567 3004331.447 2941357.692 2956950.168 2956426.472 2910702.652 2978209.174 3024071.77 2903314.48 2945959.135 2992944.66 2906679.251 2937420.668 2978676.636 2966917.792 2946726.975 2971051.921 2994467.265 2949857.61 2927832.076 2973078.29 2931089.084 2968716.626 2914933.858 2946443.524 2845640.81 2431205.996 1920263.476 1186967.504 
1191301.949 1888465.408 2502272.465 2896258.996 2927845.565 2974673.552 3023839.376 2906266.593 2937876.163 2943595.625 2956316.424 2926822.173 2997104.23 2924671.335 2963980.852 2959128.256 2969696.755 2951036.161 2968737.043 2952978.417 2965810.585 3019892.474 2996304.385 2933385.572 2909935.303 2951590.764 2946169.904 2933063.59 2972690.03 2912144.896 2968114.944 2890000.931 3026709.566 2932172.293 2969666.817 2995363.928 2915162.158 2438422.867 1954842.475 1169438.988 
1157211.099 1943770.695 2501562.357 2801617.543 2943341.443 2946306.128 2929479.664 2945822.064 2958892.569 2996002.061 2954933.101 2966499.804 2967851.775 3010805.458 2931274.524 2900824.313 2914929.862 2912450.865 2981131.381 2946027.47 2982066.491 2919911.29 2972073.129 2900663.444 2934065.28 2930141.921 2954876.728 2944091.454 2961222.191 2937009.094 3027502.424 2907473.638 2993027.539 2932149.039 2949558.857 2942859.498 2836973.162 2457074.503 1979052.499 1188689.736 
1107571.492 1909633.301 2463185.231 2839630.936 2937456.806 2934968.46 3011034.937 2957202.591 2974039.007 2944417.843 2882934.175 2943309.963 2954941.729 2939267.457 2885613.504 2935155.624 2961951.826 2954025.481 2990403.867 2971837.024 2984196.605 2958694.765 2910734.464 2928630.678 2930182.836 2941384.15 2910592.625 2945023.617 2952210.314 2910320.135 2961128.185 2933488.17 2946519.402 2995103.897 2927130.924 2949157.729 2887521.864 2455371.913 1838551.42 1150277.952 
1128854.789 1915390.024 2475675.263 2893478.679 2944978.538 2987181.491 2960433.287 2943161.817 2973893.713 2912196.266 2944276.769 3065241.31 2994818.191 3005548.647 3022903.534 2935575.265 2925395.86 2968063.555 2945144.004 2920319.839 2964886.507 2970755.96 3008876.317 2902628.037 2951952.43 3002234.654 2969847.2 2932345.425 2931488.933 2923529.124 2900693.365 2949086.203 2901667.757 2957583.974 2945308.336 2977805.434 2826262.384 2382678.055 1905331.757 1122085.577 
1144608.772 1928873.89 2435006.637 2874743.039 2946395.138 2941306.713 2919387.789 2913817.115 2935769.626 2898085.226 3022143.531 2973502.119 3003141.986 2963974.307 2935375.71 2907471.054 2949902.651 2950515.631 2922997.491 2936231.988 2938300.155 2965700.31 2949550.379 2937422.345 2939082.135 2948764.409 3021689.073 2952241.03 2966351.714 2922490.22 2972877.412 2960366.333 2881633.669 2984517.834 2964429.122 3025080.345 2861505.148 2515926.772 1850053.968 1219536.174 
1059082.749 1836470.723 2399835.204 2824323.129 2900297.938 2873364.092 2908577.749 2888609.722 2876768.1 2816405.522 2904234.981 2853927.882 2867145.03 2895263.732 2896986.997 2950246.685 2879664.514 2856785.031 2865813.625 2853252.848 2943746.958 2937755.767 2883372.372 2903774.809 2818494.249 2868727.678 2872932.111 2867681.86 2908646.987 2853314.695 2897202.655 2889340.402 2919662.299 2793381.94 2864522.596 2906517.776 2818663.948 2393925.731 1807089.918 1184049.091 
988369.1273 1593344.199 2033352.096 2359862.172 2496175.262 2465208.453 2401070.591 2470123.884 2474985.602 2438384.224 2506954.4 2465396.847 2452822.65 2435356.867 2486895.985 2458673.448 2538743.922 2501333.629 2458414.098 2489296.757 2490976.265 2447098.201 2423265.191 2470667.099 2477672.699 2475913.742 2427751.334 2457388.887 2470702.434 2503042.156 2471705.288 2480897.371 2487161.793 2461420.796 2482986.283 2483746.535 2395415.816 2087761.702 1674091.073 975780.7366 
679210.929 1170006.115 1554011.147 1866246.13 1997884.149 1933996.267 1886779.168 1899548.583 1885199.703 1911405.981 1903269.185 1932073.995 1915388.733 1947922.212 1945824.367 1918006.15 1967567.886 1875425.734 1923567.9 1868159.815 1868456.005 1880462.978 1943234.479 1919414.187 1949273.118 1931179.985 1831468.974 1928942.97 1923905.53 2015145.325 1936830.468 1890785.839 1896907.201 1961157.308 1983382.266 1940557.012 1849877.619 1529977.42 1252204.145 755969.1489 
453054.639 726290.479 913347.734 1085219.624 1105884.419 1106238.422 1165561.512 1153646.209 1177435.636 1181464.313 1175081.256 1147314.033 1093809.019 1137632.61 1180464.44 1098499.469 1168224.818 1147229.647 1091530.374 1166288.448 1174147.456 1140555.478 1137476.836 1177471.018 1170974.525 1126031.515 1118825.951 1126684.439 1113831.707 1124486.333 1050750.138 1165075.583 1091111.89 1187604.01 1133834.917 1157801.565 1128633.296 956845.3776 782791.0201 424033.6327 
# Events [m3/m3_1574209114.hd_vd] N:
129 484 780 1079 1096 1242 1153 1094 1190 1129 1135 1119 1182 1129 1146 1137 1146 1126 1125 1129 1163 1177 1173 1192 1190 1158 1154 1129 1188 1145 1121 1118 1167 1148 1152 1076 1063 761 500 181 
522 1378 2196 3016 3238 3277 3176 3255 3218 3249 3218 3127 3132 3233 3303 3214 3116 3053 3265 3209 3295 3220 3232 3236 3263 3139 3108 3269 3254 3155 3182 3268 3227 3065 3262 3173 3085 2293 1292 474 
779 2209 3773 4891 5166 5224 5239 5233 5294 5257 5253 5321 5425 5322 5168 5270 5374 5284 5315 5244 5171 5325 5333 5316 5220 5260 5243 5300 5299 5347 5254 5363 5223 5346 5381 5344 4913 3701 2301 841 
1066 3069 5028 6828 7227 7203 7080 7134 7161 7208 7161 7237 7177 7173 6999 7205 7052 7060 7100 7206 7260 7292 7162 7184 7243 7177 7348 7158 7132 7078 7214 7227 7102 7049 6999 7262 6985 4973 3147 1103 
1057 3150 5234 7089 7567 7499 7607 7578 7592 7280 7676 7482 7366 7474 7680 7560 7502 7668 7573 7614 7605 7603 7479 7579 7512 7494 7561 7533 7558 7454 7372 7533 7523 7236 7524 7426 7240 5341 3209 1118 
1031 3260 5276 7150 7470 7442 7572 7529 7550 7474 7436 7546 7508 7503 7581 7496 7538 7423 7606 7717 7452 7667 7543 7568 7535 7534 7530 7337 7535 7524 7581 7526 7527 7612 7532 7637 7336 5205 3204 1161 
1122 3175 5195 7112 7466 7445 7541 7581 7666 7561 7532 7439 7535 7546 7453 7507 7511 7534 7473 7514 7543 7411 7455 7537 7657 7692 7532 7499 7513 7386 7509 7608 7636 7482 7611 7532 7217 5241 3172 1135 
1125 3107 5139 7101 7445 7408 7409 7553 7593 7564 7575 7547 7507 7425 7666 7645 7406 7568 7442 7588 7612 7487 7691 7515 7578 7559 7601 7606 7387 7580 7448 7478 7577 7757 7528 7540 7037 5240 3198 1172 
1156 3147 5394 7153 7498 7411 7612 7516 7400 7555 7524 7328 7464 7405 7511 7522 7402 7492 7525 7556 7555 7412 7481 7478 7487 7607 7423 7408 7563 7627 7523 7526 7605 7569 7539 7449 7052 5311 3142 1193 
1125 3230 5131 7126 7350 7527 7511 7521 7359 7432 7565 7477 7317 7535 7539 7588 7509 7436 7402 7511 7607 7514 7570 7396 7504 7606 7464 7553 7713 7544 7714 7368 7543 7647 7562 7615 7051 5410 3206 1201 
1178 3200 5260 7209 7412 7490 7549 7640 7545 7369 7572 7576 7602 7436 7375 7396 7469 7562 7447 7464 7552 7626 7666 7539 7596 7594 7520 7557 7586 7540 7552 7661 7635 7660 7531 7543 7129 5300 3180 1188 
1117 3248 5210 7285 7548 7681 7521 7531 7483 7546 7341 7584 7535 7667 7468 7454 7342 7585 7417 7665 7466 7594 7477 7353 7500 7602 7474 7644 7450 7395 7464 7540 7590 7582 7561 7578 7312 5245 3158 1134 
1072 3074 5277 7159 7537 7505 7550 7624 7638 7466 7531 7511 7499 7579 7503 7559 7507 7565 7456 7477 7558 7772 7467 7609 7448 7618 7426 7579 7703 7504 7503 7402 7535 7695 7496 7652 7219 5210 3198 1111 
1112 3079 5307 7092 7694 7457 7496 7711 7553 7539 7637 7376 7380 7458 7530 7458 7516 7510 7448 7485 7493 7441 7532 7482 7537 7630 7594 7744 7562 7389 7366 7449 7388 7523 7453 7573 7099 5192 3325 1135 
1140 3368 5264 7255 7522 7437 7536 7543 7510 7699 7445 7572 7512 7412 7497 7487 7599 7494 7550 7672 7603 7481 7594 7494 7537 7568 7686 7414 7491 7684 7638 7489 7439 7403 7487 7500 7272 5313 3234 1209 
1080 3182 5272 6968 7565 7602 7506 7382 7445 7495 7537 7337 7566 7560 7646 7535 7529 7540 7477 7480 7591 7491 7604 7529 7640 7647 7608 7484 7498 7534 7399 7465 7559 7474 7512 7484 7139 5284 3181 1076 
1147 3231 5292 7040 7615 7545 7665 7543 7387 7423 7523 7511 7512 7352 7491 7607 7525 7565 7492 7614 7465 7512 7547 7471 7571 7693 7618 7542 7519 7422 7484 7401 7547 7488 7702 7611 7172 5292 3208 1128 
1098 3225 5252 7139 7552 7455 7457 7382 7520 7418 7527 7817 7570 7640 7435 7642 7542 7501 7410 7674 7466 7368 7488 7487 7496 7366 7402 7398 7463 7643 7500 7578 7403 7623 7480 7598 7155 5402 3223 1149 
1136 3250 5233 7159 7478 7595 7489 7663 7467 7427 7494 7423 7479 7469 7737 7505 7559 7556 7456 7565 7623 7345 7520 7371 7652 7563 7547 7446 7523 7517 7550 7409 7643 7504 7542 7399 7139 5353 3130 1147 
1067 3093 5205 7051 7479 7684 7577 7525 7554 7501 7482 7651 7633 7460 7526 7413 7421 7513 7704 7425 7464 7548 7654 7563 7666 7482 7497 7609 7603 7578 7427 7511 7541 7450 7651 7542 7087 5257 3215 1139 
1128 3220 5265 7366 7599 7452 7472 7459 7567 7502 7698 7624 7523 7531 7418 7607 7443 7570 7589 7659 7510 7667 7492 7475 7419 7476 7492 7510 7478 7488 7590 7531 7684 7656 7531 7506 7331 5316 3331 1166 
1076 3226 5215 7136 7550 7494 7475 7525 7605 7610 7480 7561 7501 7567 7494 7626 7724 7570 7520 7422 7509 7503 7574 7546 7520 7318 7486 7509 7548 7465 7434 7569 7519 7345 7487 7431 7323 5349 3128 1157 
1113 3276 5181 7182 7673 7560 7499 7533 7540 7600 7534 7570 7616 7581 7510 7494 7631 7576 7435 7558 7587 7529 7404 7379 7449 7454 7505 7455 7441 7475 7535 7461 7500 7463 7539 7411 7176 5394 3218 1155 
1087 3221 5211 7001 7508 7665 7505 7402 7412 7497 7496 7570 7417 7540 7447 7655 7601 7414 7569 7642 7542 7518 7557 7657 7550 7590 7498 7560 7381 7598 7518 7437 7547 7319 7578 7540 7405 5267 3209 1137 
1062 3262 5351 7280 7350 7570 7703 7422 7393 7632 7465 7554 7531 7478 7420 7612 7582 7503 7634 7563 7557 7520 7461 7654 7486 7532 7561 7495 7458 7594 7395 7516 7518 7592 7506 7617 7067 5402 3174 1232 
1106 3147 5198 7220 7424 7522 7435 7624 7554 7539 7630 7485 7410 7437 7522 7555 7383 7540 7514 7603 7488 7444 7476 7550 7772 7586 7340 7622 7581 7504 7539 7502 7574 7488 7436 7466 7281 5228 3195 1134 
1134 3207 5143 7163 7527 7603 7533 7512 7571 7715 7608 7496 7478 7739 7651 7409 7415 7608 7495 7359 7560 7414 7603 7509 7585 7463 7569 7579 7535 7492 7582 7533 7434 7458 7622 7472 7186 5205 3322 1126 
1130 3284 5217 7040 7535 7611 7629 7530 7634 7442 7545 7448 7515 7576 7535 7533 7574 7552 7542 7428 7501 7472 7436 7517 7568 7547 7573 7638 7594 7460 7502 7700 7523 7513 7673 7573 7196 5240 3180 1131 
1096 3136 5315 7132 7570 7747 7602 7465 7511 7492 7581 7557 7619 7521 7670 7343 7498 7615 7472 7594 7502 7473 7490 7491 7617 7392 7545 7402 7461 7618 7670 7412 7448 7414 7530 7316 7128 5313 3181 1175 
1116 3276 5214 6993 7594 7472 7513 7407 7552 7468 7530 7407 7528 7456 7470 7334 7540 7520 7533 7440 7515 7511 7464 7236 7311 7642 7306 7444 7753 7580 7509 7542 7532 7591 7540 7538 7098 5285 3235 1156 
1135 3138 5230 7162 7428 7463 7550 7529 7484 7497 7396 7405 7659 7567 7469 7389 7446 7573 7442 7411 7400 7613 7575 7476 7473 7589 7577 7518 7629 7514 7530 7469 7604 7600 7510 7554 7174 5181 3267 1225 
1105 3262 5243 7131 7408 7597 7667 7497 7608 7469 7550 7557 7518 7516 7521 7564 7474 7521 7456 7538 7647 7623 7701 7448 7466 7366 7472 7343 7671 7411 7653 7542 7678 7473 7525 7657 7209 5274 3409 1175 
1101 3171 5366 7151 7540 7425 7474 7424 7469 7513 7479 7603 7555 7564 7555 7351 7418 7593 7572 7655 7542 7399 7413 7342 7463 7437 7618 7539 7489 7466 7581 7525 7476 7504 7445 7505 7083 5360 3384 1161 
1055 3174 5202 7224 7511 7515 7627 7540 7306 7420 7428 7441 7475 7473 7310 7581 7442 7580 7449 7461 7646 7699 7505 7520 7475 7456 7360 7572 7488 7570 7451 7508 7438 7606 7558 7470 7255 5303 3178 1181 
1090 3160 5223 7226 7645 7658 7549 7547 7626 7475 7484 7543 7598 7540 7622 7607 7457 7486 7431 7491 7410 7640 7647 7309 7413 7494 7562 7463 7586 7603 7544 7388 7405 7554 7572 7424 7139 5259 3236 1137 
1097 3196 5231 7093 7551 7528 7441 7414 7453 7151 7638 7520 7778 7545 7451 7377 7494 7601 7427 7471 7520 7518 7363 7583 7580 7494 7590 7499 7533 7488 7635 7541 7600 7636 7482 7690 7059 5391 3188 1160 
1015 3036 4934 6813 7320 7182 7268 7263 7216 7048 7125 7096 7168 7194 7182 7250 7128 7134 7194 7150 7195 7124 7264 7233 7113 7098 7197 7047 7289 7065 7175 7250 7208 7089 7044 7161 6952 4995 2947 1110 
792 2262 3677 4864 5280 5277 5325 5267 5230 5181 5299 5290 5213 5245 5274 5279 5401 5231 5223 5289 5206 5242 5235 5172 5205 5292 5191 5229 5360 5296 5269 5402 5362 5254 5347 5359 5073 3698 2269 830 
451 1296 2162 3040 3322 3193 3266 3075 3197 3155 3132 3249 3172 3170 3156 3207 3210 3158 3243 3115 3237 3127 3112 3219 3180 3207 3056 3296 3189 3259 3232 3178 3111 3219 3230 3235 3092 2224 1394 469 
188 495 801 1071 1065 1077 1181 1174 1110 1174 1102 1131 1092 1121 1148 1168 1134 1070 1144 1072 1155 1119 1113 1139 1144 1134 1106 1187 1143 1154 1099 1116 1101 1150 1129 1089 1091 774 474 178 
