# Format: McCode with text headers
# URL: http://www.mccode.org
# Creator: McStas 2.5 - Nov. 19, 2019
# Instrument: /zhome/89/0/38697/TESTS/2019-11-20/McStas-2.5_CPU_MPICC/Test_Sources/Test_Sources.instr
# Ncount: 1000000
# Trace: no
# Gravitation: no
# Seed: 1574209517
# Directory: 4
# Nodes: 10
# Param: source=4
# Param: Lmin=1
# Param: Lmax=11
# Date: Wed Nov 20 01:18:30 2019 (1574209110)
# type: array_2d(40, 40)
# Source: Test_Sources (/zhome/89/0/38697/TESTS/2019-11-20/McStas-2.5_CPU_MPICC/Test_Sources/Test_Sources.instr)
# component: m2
# position: 0 0 1
# title:  Intensity Position Position Monitor (Square) per bin
# Ncount: 10000000
# filename: m2_1574209109.x_y
# statistics: X0=4.13141e-06; dX=0.0288345; Y0=1.23143e-06; dY=0.028837;
# signal: Min=5.96671e+08; Max=6.48074e+08; Mean=6.2288e+08;
# values: 9.96608e+11 3.15162e+08 9.99962e+06
# xvar: x
# yvar: y
# xlabel: x [m]
# ylabel: y [m]
# zvar: I
# zlabel: Signal per bin
# xylimits: -0.0499994 0.0499995 -0.0499997 0.0499997
# variables: I I_err N
# Data [m2/m2_1574209109.x_y] I:
600457869.9 609556154.3 622522246.3 610888270.1 623725667.7 619005070.2 634307210 615142234.6 628740424.7 620674568.3 625491213.4 617689756.7 622665590.8 629256531.2 622874282.9 620371310.7 635660483.5 614301824.3 621403563 626688890 624011208.4 621704386.8 622073302.8 627194899.9 611013861.7 623177400.2 635723783.7 615817127.6 623152028.1 618540018.7 626230014.6 627354323.7 608895106.2 620612752.7 617610742 625810815.2 621296892.2 622925418.7 627604888.8 620463128.2 
615009716.2 617088502.1 607047448.5 614846905.5 618465800.6 638162461.9 617125693.2 632832471.8 623575270.6 630109071.3 624393391 613496748.2 619086235.3 607962794 627256006.9 612207780.4 611364476.2 614197803.6 624388754.7 622512148.2 616743411.8 614133164.7 626045473.3 603205190.4 624640731.4 622475858.4 617115216 624571380.5 623935100.6 618423845.7 610017295.3 619093831.4 624775339.1 618807703.5 638062106.8 636234584 616434571.1 618945606.7 620664684.8 623737469.2 
623011606.2 624111830.6 622797693 615612179.3 616352130 628718960.4 611442206.4 612925591.9 618978502.2 627809393.4 623378968.1 631685195.1 627335037.9 618978532.8 623455828.8 623929665.5 612836311.5 626526064.8 618898021.7 619302028.4 628167317.7 619388301.4 622144461.3 626274629.3 619043291.4 612503408.5 628941902.3 620459919.7 603216485.3 610250740.4 628498725.5 612318042.9 626347736.1 626550429.1 623046227.4 611200312.5 613527402.1 615861232.4 626293806.7 614195712.3 
623779537.6 614842692.3 625151514.3 610811294.9 624571844 636429697.4 620040314.3 617064618.6 626803955.7 631859900.7 628815725.3 616915803.9 623714854.9 629599228.3 618440584.4 617917688.3 605122627.4 620614148.8 628520981.9 629130408.2 610396044.4 620750609.4 619919656.8 635214450.6 631861018.3 627104590.6 626911683.1 616041764 627669739.2 610608795.7 615831262.1 620438465.5 626714494.2 618955060 612199215.9 624586182.7 614095179.8 617702483.1 631521607.8 615447746.9 
609243444.1 625515537.3 638401360.3 625961840.5 632880264.2 620283611.1 630640304.7 615424098.8 619988536.4 635987454.5 624194575.8 622733364.5 627852125.9 631246268.8 622971330 631715008.2 628494281.5 601524515.1 621186382.1 627889703.3 629585547.3 626775848.7 640701403.4 634773383.7 640192953.7 626159039.3 633638197.5 621768305.1 618762560 617625177.4 626433284.7 616603732.3 615719705.3 618105871.4 624257817.7 630188072.7 606088354.6 604541429.2 615993220.4 621941781.1 
628618696.1 611347614.8 614901448.4 636141386.5 608436977.5 630350511.4 617945810.2 614164873.4 615646678.4 614309536 618446954.5 609324234.5 614032622 623009422.2 619618661.9 627670725.3 614963781.4 612119193.6 626802315.7 608575384.3 625623907.4 623519583.3 628780122.2 610280306.3 631457796.2 617718491.5 614931347.4 627285093.4 624570202.3 628120802.2 608037207 635250357.2 621527159.9 625914610.8 624982750.4 617301853.2 611574139.4 628419556.8 614329591.8 623973465.9 
627664020.7 617519752.6 621076174.1 622536889.7 613733264.6 629083923.3 609594989.2 617558276.2 632692071.6 625096206.4 618362900.9 618117140.1 622624324.9 625320335 633996445.8 628289280.8 622260284 617716426.7 629322636.7 620061943.9 622656458.9 625139645.8 623607475.8 612689473.3 633971897.7 629306225.5 613656630.5 622625836 615221005 626343640 623890801 623620064.6 623736881.1 626024078.3 629483389.7 613130542.1 640727781.7 614623610 626464916.7 620308478.6 
609286490.3 598839298 610644591.9 627908268.5 622003372.4 629692488.9 628521955 620948806.4 621432866.9 619507047.7 619470419.1 635658600.3 605572616.7 618939616.6 615644149.2 617709812.8 620172844.8 637481916.8 622440110.2 612975909.9 619665001.8 603978995.3 621012527 628654687.5 611727402.2 632102503.7 622430122.1 624615406.9 629778824.5 617569488.2 620308182.6 623027698.2 627827262.7 632005061.7 621728190.6 619904313.6 612290711.5 623866906.9 619703984.5 627255214.2 
627943337.8 621980161.8 621772604.4 623622914.7 625968621.4 634764358.9 617746416 631101600.4 614149082.5 619093803 617562068.6 627876754.1 628791002.4 634190315.2 636984955.3 625685748.7 622353428.5 615412060 634306851.2 618855306.1 621746935.2 613542333.1 627092737.7 631635085.7 628584658 608640867.8 621219169.1 625999704 626176324 624635675.7 631259937.4 618031416.9 617554200.8 636569859.5 625892128 626955756.9 622919511.6 612823893.3 607569948.7 613640350.5 
625238689.8 618373672.1 611398778.8 621805753.3 622850575.1 618495049.5 629073194.9 631174079.2 622193560.4 620069305.3 625808402.5 624156185.7 618989701 612712758.3 618091138.1 625258038.4 624720197.6 623068308.2 612918126.9 616127663.1 622818341.8 625195251.5 646433863.6 620024456.1 621957383.7 613898947.9 630169515.8 617991232.4 621658103.6 630597360 624855615.9 628971688 615124859.6 631161884.9 622975786 606512944.1 621302687 620948086.3 609132933.8 623257974.5 
617942729.1 628576362.2 615716584.3 625237792.3 629171555.9 626922831.4 634817967.6 623253637.7 622643216.8 624111346.7 628852995 612336466 634515025.9 620251614.7 632529387.7 628110700.2 639558925.8 625322180.1 634540647.2 633359855.1 636554345.1 632642168.1 619933933.1 621381874.2 617521746.6 639811212.8 623148827.4 629524923.6 628100510.7 623274469.5 632492294.7 635307572.4 624853049.2 632917746.9 618852206.1 607058705 623558925.4 625272908.1 621113109.3 621512130.4 
628714712.2 620261266 629107284.1 632857458.6 613280619.2 631844562.9 622589868.1 624094671.4 615000072.3 618465596.5 635091533.3 619660881.5 617785176.1 625386205.4 631170986.7 624857290.1 616727948.4 612577690 617302491.5 617023328.3 619315955.1 625395053.7 624566156 623317601.7 623655208.6 618483623.4 643156788.3 616090576.9 608978010.3 624310647.3 629036802 620783720.9 617011508.9 632265993.5 630643613.9 619549406.3 617115532.4 616852545.5 608423421.2 617874588.1 
621979805.7 625653828.9 631717605.2 609968883.2 620178899.1 616231059.9 610153277.8 633399371.7 629702961.6 617692668 639008460.9 636558647.9 622903278.4 620415165.3 618612131.8 631070185.7 624246123.9 622188903.8 642705796.8 626834387.9 633132617.1 625320059.1 628988427.3 633235353.8 639367193.1 628895579.9 617319271.1 615511778.8 611991957.4 623631621.7 625575103.8 629994035.4 613845351.2 614349919.3 642338153.2 640003514.8 619328893.1 619166539.4 628049415 622676660.5 
627856094.2 612234893 622963885.3 610275040.7 621477778.9 633471184.8 612657730.3 634903038.5 611044468.1 623187228.7 613060970.3 624682642.6 621811370.5 621219072.5 633604101.5 626587899 629146686.9 621900794.7 630723899.6 633041457.9 624947250.5 632027397.5 621003162.2 635042453.2 622990703.9 617816168.5 629713478.8 614222454.2 616992732.7 606575030.5 628281166.3 622720510 621233299.5 618635362.9 632779379.6 612613001.3 615256494.9 617580447.7 621378935.9 619602903.5 
609847682.1 621678882.7 631526297.6 623015945.4 622171418.1 624400217.4 621324435.1 619932922.7 631989978.5 622387429.4 634919849.9 623879698.3 622401661.2 613726122.9 621007337.6 635474060.4 630343854.5 621095439.6 618625904.5 635137438.7 635935318 628321707.1 626691361.7 626346068.4 620385732.9 635498013.5 623814238.2 625003630.1 614490232.2 631525462.8 612305387.5 637286225.8 627012222.5 616038628.9 617918653.7 631839961.6 611561339.6 621459728.6 632830729 623672297.1 
634789743.6 621761651.6 623031381.8 611639009.9 632421635.7 620291653.6 622204223.1 614923741.5 623390835.5 625855113.9 610035864.8 624553864.3 634669503.3 634082943.8 614191007.4 629359986.3 624426162.4 647863003.6 628502161.3 619618561.8 605422643.7 623203546.8 631070300.2 622227800.5 623861487.3 622582718.8 632385403.4 615187560.8 631846510.2 630005903.9 619071067.6 621199320.8 634477247.4 623499660.4 616399303.6 633513196.4 620409944.1 612880272 637285098.1 621065308.9 
608788032.4 608972601.3 618619439.7 626751378.2 624702927.7 626338433.9 619076913.4 616179291.3 628840222.2 596670797.3 612790456.1 631208634.9 626841663.4 628852604.2 609855297 628620249.4 615790219.1 625533445.7 628365054.5 632178103.8 624879233.4 630864529.6 627933023.9 611790793 624921213.1 620950011.5 622856635 632536406.4 626015850.7 608998281.3 633504369.8 629045047.2 626160101.4 611188480.8 620448944.9 611545688.6 616882910.9 614727880.9 628783565.6 625495118.3 
614699590.1 629238023 615865705.8 621302420 620961197.5 608924996.9 623009007.4 634882183.4 626698048 618678811.3 625424739.2 637549491 616694839.3 625998462.5 626592295.4 613973300.6 614036086.6 619481643.8 626312274.7 619927693.6 623627071.6 629709824.8 614283483.4 629931847.8 621572621.2 633388543.7 623102890 625988268.4 632356006.8 620227347.3 619777425.4 618009230 615529442.4 623405816.1 641146463.7 618171261.3 631580486.6 609591016.9 626842406.1 629927989.3 
612051534.4 620002310.8 622368566.9 627617996.1 621790766.5 612250349.7 618058526.2 620548535.9 608653406.4 632591299.4 617565556.7 632389695.8 633113218.2 625825570.3 622024916.1 622502453.8 626264569.3 635410310.7 632841719.2 630757751.6 611659211.2 631342198.6 638909265.1 629261231.5 618603139.3 627922446.8 619334389.2 629218210.3 623299521.9 640435476.7 627196720.1 632614647.3 620550145 623338680.5 625816603.3 615710428.8 617258262.6 622780063.4 639817147.6 611755160.9 
622409326.9 626286167.6 627967985.7 612686919.3 620010352.7 618446831.3 625053883.5 628344332.4 614657572.1 614529925 627168506.4 605927610.7 629032071.6 642638505.2 614143602.9 635714599.5 620281842.7 622727930.1 630157632.2 636273578.2 626873564.9 636557887 635325432.4 626680612.5 624118660.4 625838703.5 617450884.5 628632045.4 617120278.9 608192307.4 632303612.6 627042492.2 637631936.4 624751463.8 625332479.3 620807737.1 631821489.6 625672875.8 627085879.4 619233119.2 
622311228 622415584.6 620897018.1 625645232.3 612734893.5 610977496 630337351.3 619566670.5 627236905.2 617728839.7 628964627.1 623308581.1 625737296.7 619644576.8 624239203.6 624718232.5 621680416.6 638025883.9 619958586.1 615774531.5 623473706.9 606659497.3 620527792 622280115.9 634115135.1 633936813.9 617448586.8 624933343.2 610524599.9 618481224.4 641689253.8 615558809.7 607882794.3 620860530.3 629719116.2 611033799.7 620060861.1 622590315.4 625494253.4 639126428.9 
615436337.8 624976939.2 620291758.1 627819815.4 637045778.3 625416417.8 622040623.3 627135932 632605523.7 615312845.3 604181477.2 633986975.2 617027205.1 623130996.6 621526430.4 623602251.7 636363115.1 619212620.7 632042361 629258645.2 613359364.6 611943966.8 619213006.8 637861595.9 623502265.3 622924791.7 631027512.2 628715139.7 625493941.1 624957059.7 618608938.4 635709303.3 619249388.9 632223907.1 627212877.5 622193203.6 632108539.6 620086918.4 626077160.2 623581426.1 
620080637.4 611413396.9 617069368.8 628089895.1 615381360.3 625087931.9 610236619.1 621211861.1 641966014.5 627664171.1 632711348.2 626861828 640774756.5 636788210.5 621793671.4 618773739.8 622333817.1 628780015.9 622211410.9 621026479.6 627825813 620711667.1 622079340.4 634132219.1 638366312.2 621495563.7 638789889.7 636578496.4 622366668.4 615831323 629057852.5 611021098.8 627703126.9 623206473.7 620596912.2 618467396.6 638750170.3 616264621.9 616885505.3 624561162.6 
619439900.8 615056386.3 628966439 631935675.4 626799283.8 629726593 625160538.5 616876538.8 625349099.4 626522461.5 621082811.4 636402946.9 625840804.1 620451837.5 620147992.5 630322128 603593760.9 624134564.2 612666220 630380601.5 627280169.8 611365904.6 620434748.2 623585282.6 631120467 619249216.4 634246993.4 628541954.3 624316475.9 632968439.1 630210843.9 606384573.8 615383874.3 629346739.3 619457801.2 630380225.6 622665680.9 622595858.4 629782631.6 608294374.7 
620569185.5 617782990.4 635881667.3 614529887.1 620161857.1 619388208.9 636462735.3 635273168.7 623688962.1 640732111 621615162.4 615165391.5 615589702.9 612504246.8 630479375.6 626660777.4 623825095.7 630867855.5 623005490.6 617219991.7 621017271.7 619604528.5 629170024.1 636016959.6 618961847.6 619886618 626788913.2 612193001 624251678.8 614627656.3 626655665.4 631371097.3 617416217.9 624195787.4 620889618.1 634910627.8 617314520.8 629998439.6 612203874.4 628126835.8 
635911684.6 617595094 623648813.5 618239683 617790229.2 629380877.1 623119887.2 616331039 617129931 631771740.1 625535609.5 616086588.8 637192619.8 621313139.8 621606552.2 627683238.7 614749564 634888745.6 628322421.1 637336039.9 621439985.2 637915384.9 612398838.8 624444724.7 626482032.8 631901492 628710367.4 627596162.7 625676746.5 628329889.1 615200115.4 629599818.9 612642225.8 627006873 611241763.2 626955445.5 629393256.3 618172979.6 614317490 622483746 
633030890.3 629948708.9 632722766.8 624224227.9 613004516.8 618419853.3 617643379.8 608063609.3 636288202.5 624187888.4 620550265.4 622588058.3 624011644.5 621619350.7 617617904.3 648074062.2 630347423.6 624297417.3 616135589.2 615750051.5 616549064 625129996.1 621202020.1 638144703.9 632181851.7 628807138.3 627212772.9 617615967 633373069.1 621346134.3 630269685.8 634088341.1 622631980.9 613656493.8 616033869.7 617288933 610083232.9 618483158 630443795 628254958.5 
604975586.1 624660469.2 616183731.1 610467808.2 627451019.7 624597448.3 627107522.7 631097875.5 625406402 628168584.3 621936632 618285029.4 623596992.4 609427424.5 632595039.2 635366482.8 630034966.5 623588023.4 637811136.1 621740254.1 624433432.8 626817474.8 628784026.5 621544738 629072358.3 627401553.8 619013744.1 614615121.7 628472637.7 629627826.7 624373009.1 621111557.1 617539155 611057065.4 627299258 629241450 614945730.5 610910081.6 613320621.2 618488786.1 
632492603.9 610010026 627511612.3 628165492.4 639971004.6 622677637.7 636155521.2 615316723.8 631761008.3 634528183 634981486.7 609374639.1 618784901.6 629376186.9 617285420.1 628152647.8 627115261.6 612078238.3 640185466.9 622411150.9 616621401.8 621403540.1 634055546.7 616124120.8 609873214.2 622276320.8 631373028.2 621281747.8 630835097.6 616923042.3 616665749.8 631366616.6 623893382.6 611036107.2 642996179.9 626634071.3 637432375.6 643532136 629313175.6 623045504.8 
622614277.3 607791686.3 625077171.3 613197049.2 612045206.2 610787482.6 625149304.5 625645102.1 623555597.2 620925857.9 626370521.3 621608863 631320331.5 615957555.7 631028039.4 629405479.7 613391130.1 621829703.1 626455592.2 620874122.7 633059913.9 613965950.2 625324577.3 622681022.5 620415174.5 622239903.4 626340647.2 611059022.6 617823511.8 630355961.9 639978557 612566453.3 627438466.1 632823746.7 620452936 619815359.4 625635868.9 615040426.1 621902882.5 620716525.8 
631190088.8 618277743.9 632382322.3 612842868.1 626624175.6 629054290.5 616220036.5 617923406.1 620387442.2 630938423.8 604059719.8 616764308.3 631864802.8 642353484.3 626777476.4 635141071.9 606551700.9 628064161.7 624403040.3 629806165 628111252 622205790.5 620872174.5 625917034.2 634342820.4 613405004.3 619993773.2 615793033.9 616668221 642665874 619175766.5 613417325.2 632268917.8 624488165.8 629252766 621450760.4 619618835.3 616460061 633786828.5 606049499.5 
622978654.2 610065387.2 612822420.3 623818273.2 620586741.2 622110302.2 628110992.9 622124200.9 626603987.8 634550028.2 631226568 629963603.8 632580869.1 619726264.2 626506637.3 629974374.8 627144309.1 628686817.5 634511686 613662615.3 631034046.6 631113251.6 625493356.6 618959526.4 623389393.6 635779786.9 625416671.7 620315114.1 627369972.4 625639087.7 620890711.5 622911347.7 618749457.2 613263472.5 624310807 613123575.8 613771520.1 630220323.9 621583172.4 608265541 
609481086.2 629358449.6 620186003 623231621.8 621491270.3 627697043.4 615766833.4 624939108.6 609680560.1 625391835.7 624354654.4 623091190 623926499.7 618540273.2 620931241.6 622006616.7 628754541.4 622713434 623346269.5 623259876.3 628848562.8 629029711.2 614831780 626953583.2 627892224.8 619733902.2 613153789.8 616536996.3 624196305 621556019.9 614035169.8 621438763.8 623146499.3 629505982 636062599.9 622899956.2 622941522.8 629340068.1 606197822.4 621993150.8 
633329414.3 612946228.5 623370588.6 627807696.1 619894864.1 632867907 619544869.8 624723526.6 611973441.1 634453838.3 614084887.7 627484069.2 624214629.2 629913523.6 630202601.9 617716353.5 602511529.9 608542104.8 628727838.1 642916646.9 629735256.9 642491736.8 615827785.9 624551424.2 610432310.8 615844539.1 625023808.8 627702108.2 631270741.2 620261592.5 612039618.5 625714581.9 621743401.7 617360873.2 624209812.4 619008652.3 626417133.7 631820621 619208837.8 618115659.6 
617515685.8 612439893.8 611418518.8 615258417.7 617698455.4 617732939.9 626806597.9 624219386.9 621022748 607444501.6 616862159.6 618090002.2 624889865.8 620217573.8 618320271.8 637535198.3 636407537.3 609823857.3 625317703.7 622436942.1 629617889.3 620625668.5 625177570.4 618461174 611120681.5 618014616.4 625899490.7 615426730.7 635434896.8 629908125.3 629153644.5 617839720.4 612465467.9 607890329.7 627178899.7 628723333.7 635138927.6 610326821 620196299.1 622378224.4 
619465353 634150332.6 624610224.6 619594139.9 631477764.8 620584408.1 607065060.2 612044480.7 620783760.2 614690731.4 616331859.1 626635021.8 633623752.6 622271886.7 623964260.7 622448755.9 609555322.2 623949367 626476092.4 615530340.3 641349325.9 616511451.5 629336592.7 624901296.1 621351242.8 630842748.2 615597631.9 625358000.1 618062074.2 621302127.8 612389585.8 611025939.1 630743619.3 623782936 605468112.8 615577003.2 615423467.4 608020479.7 605170672.5 628089234.7 
626460308.6 605008148 625739197.7 616379180 621298792.2 626993790.9 617468112.5 630304395.7 637553672.2 604482995.4 618171344.6 614025007.3 604099191.9 627507475.8 625413966.1 623198986.3 612700535.1 609750519.9 625625484.6 634611361.6 612790196.7 609481901.2 613642053.1 625344143.6 618414023.4 636375406 622438905.4 615544330.3 611147064.4 623650811 634245281.6 625010262.5 610102677.1 627115957.3 636238429.1 606684901.9 613694044.3 616810988.4 626261361.4 625365357.8 
617851054.1 620829223.3 618039860.9 609862324 626586044.4 629108579.2 628135163.1 611348517.1 627732483.7 621635576.7 606968409.3 615267683.3 624343621.7 616392888.3 619267829.6 633693350.4 627276850.4 630909506.6 621181124.5 623083831.1 615616518.8 637125316.7 622146334.5 623389437 613476179.8 619666252.7 625144232.6 630921756.5 623127620.8 600904883.2 617959654.4 628130393.4 614620008.8 636787879.8 632689885 627581829.8 623961908.2 608010844.4 606460448.8 628382131.9 
610252144.1 626807538.8 623917684.1 627940611.6 627401544.4 613133190.2 628447373 623176922.7 612743029.9 626725878.7 613257454.7 617974762.6 611526950.3 622782919.6 619280535.4 625439590 622417013.4 638290819.9 616820571.8 610466902.6 610960631.8 634054771 621472547.4 634367575.2 633706780.7 619295852.1 627459707.8 627846338.2 614688888.7 622906403 624130606.4 622883768.6 613858669.8 618821045 630111677.7 613794003.6 619604916.6 634819364.4 621448437.7 629288403.9 
612748762.9 621560436.9 621436670.3 624476563.6 621150318.1 611150821.6 614845067.4 623594533.4 618608271.1 626231903.5 620126096.6 626921836.7 625960028.6 628957884.6 624774363.4 613211694.5 616646543.9 625461904.5 635533706.6 630076850.2 629681432.6 618913989.9 632719905 631174768.6 621061216.4 603578296 630150535.5 623575755.8 609019700.8 616944157.1 622356770.9 613735569.9 610582622.3 624476234.4 621872448.5 634845374.4 623379965 603388258 622441211.3 617600952.4 
# Errors [m2/m2_1574209109.x_y] I_err:
7712136.716 7772146.813 7856149.954 7784071.321 7866952.773 7838649.815 7936285.814 7816729.98 7903841.962 7854125.306 7885458.409 7837088.699 7869245.581 7911579.896 7871882.919 7856580.329 7953217.055 7818685.456 7863979.377 7897419.764 7880589.253 7865896.945 7868045.963 7900033.62 7797072.815 7873827.546 7952142.085 7825937.476 7871622.405 7841567.571 7889132.165 7895155.768 7777004.44 7850201.351 7829787.067 7880100.718 7850068.228 7858735.26 7886452.929 7839533.999 
7806857.116 7821909.598 7759737.869 7811085.75 7835591.31 7960878.564 7829932.268 7930258.145 7873200.841 7915420.005 7880390.251 7812236.282 7848492.023 7778431.164 7901430.071 7806589.736 7801546.83 7819895.339 7884728.392 7872966.632 7836443.08 7819706.181 7894955.362 7749339.041 7885395.924 7871248.907 7836740.41 7883264.379 7878371.806 7842615.995 7788161.535 7844807.03 7879565.036 7840552.117 7960246.041 7947348.325 7821163.795 7835384.546 7844585.437 7862100.667 
7859197.078 7868069.396 7861504.047 7817654.036 7823896.949 7903572.122 7795560.446 7806229.313 7845865.457 7902760.118 7875745.69 7928965.401 7902425.587 7850281.346 7879232.249 7882702.928 7812699.02 7899759.716 7851786.41 7854383.98 7910399.405 7854846.452 7872094.691 7897845.129 7851734.051 7809724.46 7913254.946 7858962.883 7748205.514 7792412.044 7907053.363 7803556.229 7891241.348 7891290.314 7867775.662 7791210.278 7804405.704 7817665.751 7881809.784 7803442.895 
7865755.659 7811032.203 7878046.749 7788783.021 7877625.15 7953508.991 7851759.015 7834203.234 7896988.995 7929908.995 7911667.46 7837368.316 7881247.09 7919018.412 7849141.975 7846298.069 7765006.181 7864070.949 7914225.447 7918133.774 7799355.503 7865168.72 7859688.965 7955735.393 7934297.842 7903913.344 7902109.7 7832587.597 7905387.371 7796348.42 7828645.94 7856800.754 7895235.332 7844938.185 7800775.117 7877806.012 7809732.692 7830950.044 7916318.236 7813046.655 
7775114.585 7880131.734 7962619.7 7886379.694 7931479.759 7853580.632 7920218.728 7825367.101 7855513.241 7957307.837 7884162.375 7875764.283 7908939.038 7930956.516 7879403.876 7934967.029 7915144.237 7743739.344 7869426.761 7911923.499 7922607.077 7904794.252 7991928.174 7954579.557 7988072.158 7899528.621 7945971.296 7870485.922 7850699.687 7842583.899 7897334.565 7834036.028 7827227.842 7841106.009 7878679.238 7914539.384 7760167.934 7748622.814 7819971.201 7855708.463 
7899191.821 7791822.011 7816194.765 7951769.017 7778134.695 7918452.901 7841599.687 7818842.433 7829463.113 7821951.779 7849222.84 7792023.914 7822866.028 7880515.997 7859663.785 7911048.558 7830916.754 7813085.86 7906385.596 7790733.005 7899065.829 7885707.326 7918743.946 7801061.242 7934866.598 7847565.403 7829234.401 7906816.326 7888906.75 7910440.894 7781931.115 7953067.086 7865543.44 7892050.232 7884689.26 7834689.922 7796608.891 7901681.588 7810819.162 7870078.193 
7894678.453 7832410.707 7856691.494 7867619.155 7813347.902 7911911.386 7789756.25 7841734.433 7938477.317 7891774.423 7850052.949 7849463.414 7878796.938 7896491.905 7951714.14 7916329.919 7878606.962 7850073.319 7923691.294 7865286.49 7881727.972 7897359.035 7887449.641 7817817.896 7952031.679 7922228.949 7822520.828 7878816.084 7831018.398 7900600.183 7884099.662 7881307.779 7880896.321 7894057.949 7914432.106 7809472.785 7981708.744 7815820.776 7888962.146 7848236.352 
7779465.614 7714287.559 7791726.476 7902752.634 7867161.481 7917060.974 7911102.721 7864524.305 7868761.861 7857615.977 7858415.612 7961297.924 7771420.131 7857374.021 7837039.206 7850623.189 7866693.185 7976005.543 7881515.417 7821472.665 7864048.22 7763765.454 7872279.251 7920305.172 7812541.017 7941087.154 7879494.277 7892626.066 7924411.807 7846305.676 7862719.272 7878856.576 7907998.489 7932980.217 7866827.74 7853815.76 7803841.674 7875627.614 7847500.101 7893283.582 
7898816.327 7863095.395 7863613.896 7876941.998 7893358.678 7950098.388 7844123.344 7929764.802 7823714.825 7856166.951 7847478.166 7913645.222 7920137.123 7954771.257 7972908.582 7902366.307 7881681.582 7837895.873 7957484.897 7860104.619 7878424.49 7826152.058 7911937.203 7940229.193 7920680.178 7793487.167 7873001.313 7902550.849 7902891.64 7892252.172 7933006.696 7848374.835 7844212.476 7962725.116 7894277.101 7899528.329 7872454.499 7806833.668 7771497.387 7808369.647 
7882901.438 7841349.27 7798810.544 7866549.873 7874728.089 7848569.124 7916786.748 7931301.544 7875868.688 7863482.384 7900765.507 7891234.406 7859276.445 7820024.92 7854835.054 7900746.057 7897733.834 7887572.955 7823283.088 7843829.546 7886304.532 7901214.292 8034110.011 7867976.314 7879826.045 7828153.965 7930583.288 7852931.418 7875402.483 7930945.043 7893771.025 7918645.111 7829794.635 7929896.345 7876940.629 7770700.906 7863332.449 7859474.189 7782581.425 7870449.498 
7837775.357 7906778.789 7827188.22 7889162.358 7915517.854 7902877.997 7953889.372 7882344.02 7879666.854 7890036.982 7920917.93 7817132.609 7958218.036 7868958.451 7947077.006 7919739.382 7991989.83 7902818.351 7961044.239 7953745.191 7973767.08 7949121.298 7868728.398 7877594.055 7852673.439 7992646.748 7887328.431 7926866.459 7917094.125 7885761.166 7942850.711 7959398.915 7892479.19 7941933.939 7851837.054 7775141.057 7878647.949 7887722.075 7859674.436 7860319.779 
7906642.813 7855186.718 7912831.03 7938053.563 7815823.155 7934716.825 7877730.316 7888565.639 7832013.845 7855155.076 7961066.806 7864629.255 7853483.859 7902365.511 7939415.083 7900098.181 7848927.795 7822762.009 7853060.563 7851415.376 7865955.131 7904370.519 7898942.954 7890728.72 7892473.36 7859188.129 8013831.93 7842721.953 7796525.913 7893187.192 7921976.395 7868746.727 7843649.107 7938757.144 7927139.673 7855626.248 7838640.676 7835300.345 7779868.669 7838172.11 
7864976.516 7890016.6 7929996.86 7793897.641 7860449.182 7836894.741 7799437.507 7947977.219 7925967.293 7851039.333 7986358.504 7971944.985 7886747.791 7871666.759 7860821.05 7940031.752 7897422.211 7884657.651 8013813.115 7914348.7 7954027.979 7904685.442 7927656.051 7954063.427 7992090.183 7925856.402 7852003.452 7839801.66 7816557.061 7889648.342 7900968.939 7927747.265 7824290.811 7826273.222 8001148.106 7985086.96 7853461.637 7850771.824 7905155.143 7869385.472 
7902721.914 7805666.421 7875531.271 7796536.722 7869330.546 7946376.457 7816140.504 7958078.886 7808277.859 7886551.191 7823194.809 7897890.188 7880506.299 7877429.389 7956185.039 7912498.032 7929020.94 7883539.007 7939446.134 7954138.19 7903130.543 7947672.867 7877858.879 7966086.035 7889751.957 7856417.307 7931126.986 7832279.015 7849120.073 7781721.286 7918742.2 7882538.721 7871916.208 7854144.573 7942073.604 7813027.176 7828300.131 7841383.848 7863667.717 7850627.308 
7789170.645 7866203.835 7930094.89 7878078.108 7874326.904 7889907.056 7871807.244 7864282.638 7941553.725 7882112.147 7962042.944 7893418.34 7884821.841 7830407.54 7877278.078 7968992.625 7937177.925 7879029.436 7863535.772 7967904.388 7972896.359 7924919.91 7914435.523 7911967.899 7873828.614 7968666.496 7894485.835 7901316.875 7833783.165 7940733.557 7818010.004 7974805.607 7909033.261 7838251.344 7848841.643 7935284.711 7805329.915 7866580.006 7936469.829 7876937.452 
7947300.556 7867251.089 7877013.95 7806321.207 7939459.839 7864405.201 7877897.19 7832947.419 7887864.711 7904505.311 7804953.627 7898155.925 7962660.838 7959688.088 7834426.044 7931079.242 7900332.033 8047522.035 7926565.445 7870433.205 7779751.608 7893080.312 7942548.076 7886417.046 7896348.406 7887748.379 7949033.027 7839488.329 7944142.304 7931665.259 7861576.898 7874014.494 7956492.805 7886086.043 7839668.214 7946278.325 7862114.658 7812624.629 7964820.605 7860957.794 
7783258.306 7786254.237 7849515.666 7902600.554 7891212.572 7903049.595 7858483.784 7841310.468 7922642.605 7718439.643 7822928.074 7940516.822 7913809.837 7927203.525 7807117.341 7926794.066 7845893.977 7908014.58 7926097.063 7950196.466 7904166.607 7941845.481 7923169.207 7820368.732 7903433.238 7877818.503 7889319.466 7949675.168 7907796.758 7798702.919 7953052.062 7923965.479 7904575.616 7808205.916 7865767.227 7807674.052 7840114.268 7824741.744 7911889.079 7889269.838 
7821214.497 7915101.457 7832248.481 7868371.745 7867836.834 7792654.911 7883664.627 7959693.385 7909475.997 7859764.993 7903483.359 7980599.536 7849777.871 7909470.336 7913815.532 7834198.747 7834999.854 7869963.897 7913435.2 7873089.607 7896544.533 7934857.702 7836880.731 7935765.566 7882546.167 7956615.246 7891172.663 7908710.321 7948035.687 7870550.86 7866741.92 7854428.424 7837484.22 7886160.717 7996235.567 7850150.669 7933277.392 7792250.52 7899981.521 7917519.186 
7804597.42 7856949.116 7873669.82 7908499.904 7873293.522 7814123.41 7852518.752 7869559.568 7794925.797 7947854.844 7853865.527 7948459.111 7953784.28 7908548.473 7885112.376 7888630.952 7912832.466 7970700.341 7954768.674 7941759.929 7820603.728 7945340.807 7992612.517 7931724.29 7863881.699 7922405.158 7867458.414 7929292.665 7891132.132 7997949.219 7913878.962 7946893.909 7869579.963 7885942.431 7900239.476 7834709.742 7842984.643 7876354.877 7981519.515 7802721.548 
7870407.643 7896734.954 7909143.57 7813969.845 7862102.638 7853650.002 7896905.761 7918909.364 7833370.802 7833652.659 7914783.101 7780461.43 7928206.122 8014220.101 7835096.233 7972008.937 7875047.398 7890854.659 7937980.027 7976510.253 7917367.818 7978193.897 7970262.716 7915562.235 7898970.724 7909345.948 7855583.937 7925682.75 7852013.383 7794135.527 7946122.043 7911933 7977258.166 7894975.488 7897274.896 7867155.508 7935052.714 7894651.979 7901795.034 7850354.094 
7869796.359 7872375.028 7864499.111 7896189.01 7815852.985 7806147.584 7930184.048 7863433.589 7913126.332 7854036.967 7926097.172 7891246.819 7907433.001 7869494.147 7899231.186 7902762.36 7883913.136 7987188.369 7873481.927 7846967.979 7895868.639 7788574.959 7876900.383 7887713.623 7961974.227 7960362.769 7855554.705 7902322.862 7809928.175 7859792.184 8004872.648 7839129.102 7788890.197 7870352.545 7924915.295 7804956.184 7860847.449 7875214.824 7891770.087 7975385.754 
7826155.4 7888383.125 7860617.005 7909787.14 7969301.565 7897705.185 7877720.263 7911223.001 7946779.307 7838539.594 7768293.622 7958483.426 7852100.381 7891528.601 7881960.412 7895597.375 7976379.305 7868451.302 7949746.727 7932321.822 7831466.871 7822326.645 7868456.207 7985757.511 7894964.258 7890815.694 7941380.672 7926100.469 7904988.996 7900728.145 7859511.568 7966307.488 7861306.428 7941985.614 7909047.978 7875864.185 7936780.208 7859283.423 7895354.973 7877674.806 
7855419.258 7802171.082 7839951.813 7911306.441 7832425.023 7895445.908 7802415.283 7873540.991 8005211.471 7916626.817 7949363.073 7913433.827 8001562.218 7977322.329 7883447.939 7864779.574 7887760.704 7928808.625 7887476.399 7880056.928 7923077.929 7877965.168 7886435.897 7962188.728 7988321.007 7881568.986 7989869.03 7975321.034 7885011.252 7842599.428 7925384.399 7809892.282 7914600.549 7884900.893 7867010.895 7852012.148 7978147.599 7834787.774 7836983.433 7883763.381 
7851083.093 7825120.764 7914816.647 7935235.31 7904461.229 7924381.945 7896992.881 7845737.709 7900635.378 7909149.849 7875701.577 7973121.75 7907478.399 7874033.457 7872713.691 7937533.605 7767802.814 7899171.999 7826445.41 7938899.375 7919345.743 7818131.789 7875719.339 7895382.531 7942550.448 7867011.215 7961120.154 7924546.936 7897048.478 7950710.829 7932359.72 7779918.216 7836266.018 7923366.78 7859520.41 7926960.598 7876798.246 7874655.058 7918194.277 7780126.809 
7857826.087 7842059.463 7957853.042 7824757.446 7862127.77 7858637.46 7967620.613 7961467.42 7889742.427 7997912.68 7878652.449 7838569.449 7842066.385 7823099.955 7937625.964 7914049.287 7896520.311 7941258.158 7891837.901 7855189.669 7879305.864 7870254.96 7930574.679 7973293.32 7865264.787 7870664.14 7913774.562 7820400.536 7896228.883 7834261.998 7909571.043 7938165.224 7848793.696 7890474.001 7868193.087 7955050.304 7842433.492 7920907.524 7806539.943 7905503.398 
7953870.221 7840306.071 7880412.649 7847856.443 7846577.521 7921286.018 7883174.556 7841337.083 7847691.114 7941319.6 7902991.646 7843942.287 7978007.729 7878622.175 7881075.623 7920017.568 7838363.038 7966038.316 7924928.914 7981680.316 7881497.932 7985179.495 7823668.231 7899934.653 7912422.971 7946089.676 7925410.578 7917658.501 7904774.707 7920614.483 7836467.761 7926552.886 7817851.455 7907707.781 7806339.01 7904545.207 7918306.915 7845745.752 7819518.167 7869461.533 
7935236.92 7917779.619 7936988.509 7885165.887 7815478.365 7851408.546 7847877.844 7788011.285 7967933.416 7892896.856 7870847.316 7884652.893 7894455.893 7879971.4 7855166.434 8047040.373 7936593.742 7898703.191 7847110.411 7844745.533 7849830.26 7904177.601 7879113.666 7985547.97 7947730.261 7926000.734 7915341.719 7853871.54 7952657.155 7875875.359 7931215.892 7954117.901 7880786.833 7822519.079 7836288.212 7842741.303 7795358.682 7847154.823 7920874.623 7905237.914 
7756736.234 7883760.881 7831861.028 7797090.827 7906395.897 7889880.218 7907090.926 7933476.205 7898838.32 7917323.27 7878930.864 7856664.631 7891104.818 7801640.105 7949156.636 7967017.263 7933917.555 7893519.501 7983249.211 7882137.268 7899159.741 7914135.163 7926339.074 7880291.934 7927454.729 7916463.432 7862751.046 7834102.222 7921155.364 7927533.74 7893344.815 7871637.535 7847820.591 7805253.346 7906994.846 7917650.37 7825613.123 7798288.543 7811893.75 7842808.97 
7930358.886 7789973.505 7902769.109 7908495.614 7984059.983 7876949.508 7963150.966 7832871.3 7938049.933 7956505.983 7960312.785 7799047.589 7859844.372 7927507.758 7851572.902 7920897.89 7914741.419 7819572.565 7997321.837 7885574.801 7848843.135 7879135.067 7958717.183 7845055.951 7804789.203 7883234.031 7940072.296 7875691.922 7935190.117 7846329.143 7843691.26 7935600.572 7887281.596 7804349.092 8004378.438 7900493.5 7966661.232 8002993.449 7912292.059 7870904.762 
7867340.678 7774969.524 7886508 7812855.09 7807055.818 7800537.449 7893073.765 7897445.337 7885532.21 7869916.191 7905342.478 7876042.729 7938154.348 7841664.004 7937617.024 7927876.715 7826770.604 7880738.626 7910196.703 7874954.865 7951859.801 7830918.381 7902848.651 7885830.188 7871033.409 7882140.274 7907484.789 7809739.117 7852068.166 7930418.19 7989751.716 7815612.078 7908749.46 7941379.613 7862028.231 7856472.669 7891672.767 7823018.658 7864632.558 7855285.111 
7920255.83 7840763.273 7931470.154 7809610.39 7898485.849 7915295.43 7835487.467 7847636.02 7864355.63 7932098.55 7762238.493 7844310.379 7940607.753 8006931.181 7909848.522 7962939.027 7782062.371 7919152.612 7896248.664 7930407.674 7919746.356 7882340.553 7873663.684 7905287.33 7957936.122 7825036.979 7866320.433 7838934.43 7843722.696 8006472.416 7857839.671 7820105.758 7938168.181 7887870.564 7916539.507 7865836.391 7852720.234 7830946.853 7938478.359 7760942.75 
7867549.745 7787506.333 7806814.919 7878152.756 7859308.452 7870402.606 7909690.139 7873098.85 7902626.829 7953654.303 7933840.354 7926736.781 7943963.011 7863559.407 7907060.328 7929383.416 7911958.198 7921967.431 7958802.105 7827049.599 7937064.733 7937433.138 7901827.288 7860160.497 7887846.461 7965314.816 7899598.05 7866599.488 7910399.994 7898627.989 7867575.275 7879275.473 7851797.45 7815604.63 7884372.742 7811919.021 7814468.123 7916817.518 7860589.655 7774037.852 
7780681.933 7908487.233 7852344.819 7873255.899 7863830.07 7904477.521 7830357.968 7889791.158 7794031.878 7894877.464 7889331.331 7882180.802 7888330.584 7854836.594 7870616.582 7877921.334 7920934.599 7883080.674 7887300.824 7886839.043 7922119.027 7923143.764 7833047.037 7909552.109 7915097.572 7863023.391 7820559.942 7841419.405 7889220.05 7871583.313 7822898.461 7868836.525 7878469.347 7917219.405 7957002.634 7872836.08 7871475.68 7910129.911 7761569.5 7860119.905 
7930261.511 7803328.609 7871244.017 7900861.224 7852435.84 7935688.096 7853044.206 7887069.549 7807410.804 7950575.367 7822897.04 7908696.053 7888821.628 7925479.335 7927861.513 7849438.622 7752592.02 7791583.896 7919969.816 8008975.045 7926373.791 8006167.08 7838106.805 7893077.899 7803004.201 7837050.671 7894635.994 7910815.82 7932516.151 7862128.705 7808890.506 7894549.84 7868279.94 7839227.925 7881212.213 7846877.997 7892115.61 7924425.431 7843116.772 7834299.654 
7829211.156 7798778.787 7793991.757 7820100.446 7837199.056 7838898.503 7897649.053 7882589.744 7863568.978 7778168.562 7839217.502 7847853.407 7891685.357 7862834.112 7851409.906 7972928.982 7966305.501 7798412.816 7897088.315 7878949.361 7924268.911 7867375.424 7895948.291 7853199.01 7806065.903 7849427.349 7898768.857 7831733.958 7957248.248 7921650.525 7915918.987 7843411.468 7807971.497 7777504.076 7898579.122 7906751.19 7945448.095 7787038.023 7848073.383 7859967.159 
7840079.699 7934323.07 7876230.089 7846109.167 7922618.198 7855500.427 7770762.459 7803873.084 7860542.953 7823001.625 7834376.518 7900505.514 7945165.508 7874337.275 7885657.554 7876575.347 7794978.927 7886729.037 7902899.518 7833686.693 7996278.527 7839826.538 7920728.691 7892459.074 7869621.081 7929016.319 7832006.595 7893192.649 7846234.127 7865845.489 7808273.204 7798496.842 7922140.984 7877078.477 7759225.483 7822254.464 7819672.295 7770905.916 7750960.19 7894408.886 
7882656.941 7748243.22 7881698.494 7824240.282 7856993.471 7894370.267 7835538.048 7917873.596 7964446.085 7756160.161 7844461.525 7818962.874 7756344.963 7905852.196 7893270.332 7879762.684 7813508.123 7794926.156 7895939.798 7952549.27 7814651.47 7793402.892 7819794.25 7893646.506 7849437.076 7962161.666 7873929.624 7829427.83 7800678.071 7879180.046 7944843.708 7885663.85 7789886.453 7896534.244 7952360.803 7763988.532 7807157.085 7825309.706 7883274.44 7875740.487 
7826547.059 7847291.733 7831452.192 7781111.796 7888611.275 7905971.681 7901229.182 7796267.052 7901166.125 7863767.789 7771435.505 7825276.191 7883530.017 7833886.657 7852687.322 7944164.928 7904201.342 7927351.26 7866204.952 7878306.692 7830979.474 7966557.49 7872118.399 7879651.767 7816411.427 7855213.772 7889237.966 7925003.345 7875084.492 7732559.916 7840512.974 7903670.583 7817039.068 7955500.793 7928471.381 7894893.687 7870558.474 7767611.625 7756037.276 7893104.286 
7776597.279 7883282.571 7866872.185 7893787.917 7892001.484 7803179.871 7901406.879 7869426.056 7804537.157 7894126.122 7809822.398 7840704.678 7800445.389 7872614.54 7850955.185 7890452.51 7871763.518 7971788.642 7836790.905 7796443.403 7799569.233 7945574.65 7866112.155 7946999.033 7942461.288 7851149.367 7902115.476 7903851.336 7819812.576 7871031.883 7877701.146 7868861.658 7810515.317 7840721.13 7910461.543 7805902.592 7841217.93 7935244.339 7849477.3 7897015.755 
7790720.582 7848388.183 7849328.681 7870166.275 7850723.176 7788681.314 7813584.752 7870308.288 7839913.357 7889155.986 7851586.376 7895341.846 7890114.711 7909700.722 7883942.661 7811140.005 7833315.718 7889478.484 7952875.922 7918764.72 7916296.336 7848200.58 7935079.99 7925056.154 7860906.006 7749018.423 7917190.265 7875090.165 7781769.826 7831411.797 7864714.84 7808949.103 7787766.735 7874540.546 7856713.067 7936809.566 7863218.103 7734478.042 7853876.792 7821496.807 
# Events [m2/m2_1574209109.x_y] N:
6062 6151 6279 6159 6286 6236 6388 6193 6328 6245 6292 6212 6261 6326 6261 6235 6388 6173 6244 6297 6270 6247 6251 6303 6141 6264 6391 6192 6267 6222 6301 6314 6130 6250 6222 6307 6264 6283 6333 6264 
6206 6224 6120 6196 6230 6426 6212 6368 6273 6337 6278 6167 6222 6109 6302 6150 6141 6169 6271 6252 6194 6168 6288 6059 6275 6254 6201 6277 6272 6218 6135 6228 6287 6229 6425 6409 6212 6240 6260 6294 
6284 6292 6276 6201 6206 6328 6152 6165 6224 6311 6265 6347 6302 6217 6261 6265 6153 6290 6213 6217 6306 6218 6246 6288 6216 6151 6317 6233 6061 6133 6318 6157 6300 6304 6271 6154 6180 6206 6314 6195 
6289 6196 6297 6150 6286 6403 6236 6204 6300 6349 6317 6196 6263 6321 6208 6202 6073 6228 6307 6313 6125 6229 6221 6375 6342 6295 6294 6186 6304 6134 6188 6236 6301 6225 6159 6286 6183 6222 6364 6205 
6140 6301 6428 6300 6367 6238 6340 6185 6229 6388 6268 6252 6302 6335 6251 6338 6305 6034 6231 6298 6315 6287 6427 6368 6423 6283 6359 6241 6212 6202 6292 6195 6188 6214 6278 6340 6100 6087 6205 6268 
6333 6156 6189 6400 6119 6337 6210 6170 6183 6168 6208 6115 6161 6250 6215 6295 6167 6138 6285 6102 6273 6252 6305 6120 6333 6196 6169 6294 6268 6305 6105 6380 6244 6290 6283 6208 6153 6325 6186 6286 
6321 6216 6249 6261 6170 6322 6124 6202 6352 6274 6205 6201 6245 6271 6357 6299 6238 6192 6308 6215 6241 6266 6251 6142 6356 6310 6154 6245 6172 6285 6262 6261 6264 6289 6326 6164 6444 6184 6306 6247 
6134 6026 6142 6313 6251 6326 6312 6234 6237 6216 6214 6375 6072 6205 6171 6191 6215 6388 6237 6142 6209 6052 6223 6300 6131 6336 6240 6263 6316 6195 6224 6253 6303 6347 6246 6230 6156 6275 6236 6315 
6320 6257 6252 6268 6289 6375 6202 6334 6162 6210 6193 6295 6303 6356 6383 6269 6235 6165 6354 6199 6228 6146 6282 6328 6298 6099 6226 6275 6278 6264 6332 6201 6198 6391 6286 6299 6261 6162 6112 6176 
6291 6219 6146 6248 6256 6210 6314 6333 6241 6218 6274 6256 6203 6139 6192 6263 6257 6240 6138 6170 6237 6261 6474 6210 6230 6150 6314 6193 6231 6322 6266 6309 6172 6335 6255 6092 6243 6242 6126 6271 
6216 6320 6188 6281 6318 6293 6370 6252 6244 6257 6303 6136 6357 6213 6335 6290 6404 6261 6353 6341 6373 6334 6207 6222 6184 6408 6242 6307 6294 6247 6341 6371 6268 6351 6212 6096 6264 6284 6245 6252 
6323 6235 6321 6356 6157 6341 6246 6259 6166 6199 6364 6208 6188 6263 6320 6256 6174 6132 6179 6176 6199 6260 6252 6240 6244 6193 6441 6171 6101 6256 6305 6224 6188 6343 6329 6220 6198 6198 6116 6214 
6254 6288 6346 6125 6225 6183 6120 6351 6312 6190 6402 6376 6238 6212 6193 6317 6248 6227 6432 6273 6336 6258 6295 6338 6400 6296 6181 6164 6130 6248 6269 6315 6155 6162 6445 6424 6219 6220 6312 6261 
6312 6152 6257 6127 6237 6355 6144 6365 6124 6244 6141 6256 6226 6219 6342 6271 6296 6223 6311 6334 6253 6324 6214 6355 6235 6184 6304 6150 6179 6076 6295 6241 6228 6204 6348 6148 6177 6203 6244 6229 
6130 6246 6342 6254 6243 6263 6230 6214 6333 6235 6359 6247 6231 6143 6215 6359 6307 6214 6189 6354 6362 6286 6270 6267 6208 6360 6244 6257 6153 6325 6134 6386 6285 6177 6198 6340 6139 6241 6358 6269 
6380 6246 6256 6139 6345 6221 6238 6163 6246 6269 6109 6253 6353 6346 6146 6297 6247 6481 6287 6198 6056 6234 6313 6225 6242 6230 6329 6158 6326 6309 6201 6224 6359 6251 6182 6356 6227 6154 6402 6242 
6118 6117 6211 6290 6267 6281 6206 6175 6300 5976 6136 6319 6274 6293 6102 6289 6160 6257 6285 6323 6250 6310 6281 6120 6252 6213 6233 6331 6267 6098 6345 6302 6275 6127 6222 6135 6191 6172 6316 6286 
6177 6320 6183 6235 6229 6106 6245 6362 6278 6196 6262 6382 6172 6264 6269 6142 6142 6196 6264 6200 6237 6298 6144 6301 6218 6337 6235 6265 6330 6210 6207 6191 6168 6249 6429 6201 6338 6120 6296 6330 
6150 6227 6248 6298 6237 6139 6195 6218 6097 6335 6183 6330 6336 6262 6223 6227 6264 6355 6329 6308 6117 6314 6390 6294 6188 6282 6197 6297 6239 6412 6281 6337 6218 6248 6275 6176 6194 6252 6426 6147 
6254 6290 6304 6148 6219 6201 6265 6296 6157 6154 6279 6065 6295 6430 6144 6359 6204 6228 6302 6363 6269 6366 6354 6268 6243 6261 6178 6291 6177 6089 6332 6281 6389 6262 6270 6227 6340 6281 6298 6222 
6253 6251 6233 6278 6146 6126 6318 6208 6283 6186 6297 6239 6262 6200 6245 6249 6218 6381 6200 6158 6235 6067 6206 6224 6343 6342 6178 6254 6111 6192 6426 6166 6091 6223 6314 6129 6222 6250 6282 6422 
6184 6277 6227 6300 6390 6271 6235 6284 6337 6162 6049 6346 6175 6235 6218 6238 6365 6193 6321 6293 6134 6120 6193 6380 6237 6232 6314 6292 6261 6257 6195 6368 6205 6337 6289 6241 6343 6225 6288 6266 
6231 6141 6195 6303 6173 6268 6117 6225 6431 6286 6335 6275 6413 6372 6221 6190 6225 6289 6223 6211 6279 6208 6222 6343 6386 6218 6392 6371 6230 6166 6300 6121 6290 6247 6223 6204 6410 6187 6196 6276 
6225 6178 6315 6342 6288 6315 6267 6182 6265 6275 6219 6371 6264 6209 6205 6306 6038 6243 6128 6305 6274 6115 6206 6238 6314 6196 6347 6291 6250 6338 6312 6075 6167 6309 6212 6324 6249 6251 6326 6113 
6237 6206 6385 6168 6222 6212 6381 6367 6249 6418 6225 6159 6162 6130 6309 6270 6241 6311 6232 6174 6212 6198 6294 6363 6193 6203 6273 6128 6250 6155 6277 6326 6188 6258 6227 6370 6196 6326 6150 6313 
6392 6205 6263 6206 6199 6313 6248 6178 6184 6329 6265 6169 6379 6219 6221 6281 6151 6352 6286 6376 6217 6382 6127 6248 6269 6324 6293 6283 6265 6293 6163 6309 6141 6287 6131 6291 6318 6208 6172 6257 
6364 6330 6355 6267 6152 6204 6194 6096 6377 6254 6216 6235 6248 6223 6182 6486 6308 6247 6165 6161 6169 6255 6216 6386 6327 6294 6279 6184 6343 6224 6315 6355 6242 6154 6180 6195 6125 6212 6335 6316 
6083 6278 6190 6130 6298 6267 6290 6328 6269 6295 6231 6193 6245 6102 6333 6360 6306 6241 6383 6222 6249 6273 6293 6221 6297 6281 6198 6155 6295 6308 6257 6226 6192 6129 6294 6316 6175 6137 6164 6219 
6361 6132 6305 6309 6425 6249 6382 6171 6334 6360 6363 6105 6198 6303 6181 6289 6278 6127 6408 6230 6172 6220 6347 6168 6106 6231 6323 6223 6320 6182 6181 6330 6257 6130 6453 6291 6402 6466 6326 6266 
6263 6111 6282 6160 6146 6131 6273 6276 6253 6225 6278 6229 6325 6170 6320 6303 6142 6226 6272 6216 6338 6147 6261 6235 6213 6232 6274 6122 6191 6318 6416 6143 6294 6350 6228 6224 6285 6181 6253 6244 
6351 6218 6357 6158 6294 6316 6185 6200 6223 6327 6056 6182 6332 6436 6279 6362 6075 6290 6253 6307 6290 6231 6218 6269 6354 6145 6212 6171 6181 6443 6209 6153 6344 6268 6318 6242 6226 6197 6374 6098 
6270 6137 6162 6270 6235 6248 6306 6244 6287 6365 6330 6316 6341 6211 6278 6312 6283 6298 6356 6147 6321 6322 6266 6201 6246 6371 6268 6218 6290 6274 6228 6250 6210 6157 6270 6160 6169 6337 6253 6122 
6136 6333 6238 6266 6246 6306 6184 6274 6119 6275 6263 6249 6256 6201 6224 6234 6301 6240 6246 6245 6301 6303 6161 6283 6293 6212 6147 6182 6260 6235 6161 6237 6256 6322 6390 6260 6263 6330 6100 6262 
6378 6170 6272 6314 6232 6360 6224 6274 6144 6368 6162 6295 6261 6317 6319 6193 6040 6100 6302 6444 6312 6440 6173 6261 6120 6175 6268 6296 6333 6224 6143 6282 6244 6202 6273 6223 6300 6357 6233 6225 
6221 6167 6154 6190 6212 6210 6299 6271 6237 6099 6192 6203 6270 6222 6202 6394 6382 6115 6270 6241 6313 6223 6269 6202 6129 6199 6279 6175 6377 6323 6317 6205 6153 6109 6305 6323 6390 6143 6245 6270 
6243 6388 6289 6236 6353 6241 6103 6151 6237 6174 6189 6291 6360 6245 6261 6245 6115 6259 6284 6174 6433 6184 6313 6269 6234 6330 6178 6277 6205 6239 6151 6139 6339 6271 6089 6193 6194 6122 6096 6330 
6316 6097 6303 6206 6253 6308 6210 6337 6408 6074 6210 6167 6066 6300 6278 6255 6149 6119 6278 6368 6149 6116 6158 6276 6207 6388 6249 6181 6138 6265 6373 6282 6134 6307 6401 6106 6179 6213 6311 6305 
6232 6259 6228 6143 6309 6332 6320 6149 6312 6249 6100 6182 6272 6191 6219 6363 6298 6334 6236 6255 6180 6396 6246 6259 6160 6223 6279 6338 6261 6039 6212 6316 6182 6407 6368 6319 6285 6127 6114 6338 
6158 6322 6290 6328 6320 6174 6326 6271 6164 6303 6166 6212 6146 6258 6222 6283 6252 6411 6195 6131 6136 6368 6242 6372 6366 6222 6305 6310 6179 6263 6277 6266 6177 6229 6345 6183 6244 6400 6268 6350 
6186 6272 6268 6296 6260 6157 6192 6278 6226 6301 6238 6305 6294 6323 6280 6163 6197 6285 6386 6331 6327 6219 6358 6343 6242 6067 6335 6270 6125 6206 6262 6177 6147 6289 6265 6398 6285 6086 6281 6235 
