# Format: McCode with text headers
# URL: http://www.mccode.org
# Creator: McStas 2.5 - Dec. 12, 2018
# Instrument: ILL_H512_D22.instr
# Ncount: 1000000
# Trace: no
# Gravitation: no
# Seed: 1570825286
# Directory: ILL_H512_D22/0
# Param: lambda=4.5
# Param: dlambda=0.45
# Param: D22_collimation=2
# Param: D22_sample=H2O_liq.qSq
# Date: Fri Oct 11 20:21:43 2019 (1570818103)
# type: array_2d(50, 50)
# Source: ILL_H512_D22 (ILL_H512_D22.instr)
# component: H51_split_1
# position: -0.240102 -0.0325 10.6977
# title:  Intensity Position Position Monitor (Square) per bin
# Ncount: 1000000
# filename: H51_split_1_1570818102.x_y
# statistics: X0=0.000594632; dX=0.0116088; Y0=-0.000858091; dY=0.0158101;
# signal: Min=9.91276e-25; Max=7.40622e+07; Mean=1.65059e+07;
# values: 4.12649e+10 6.00664e+08 21122
# xvar: x 
# yvar: y 
# xlabel: x [m]
# ylabel: y [m]
# zvar: I
# zlabel: Signal per bin
# xylimits: -0.02 0.02 -0.0275 0.0275
# variables: I I_err N
# Data [H51_split_1/H51_split_1_1570818102.x_y] I:
6620.862471 23787983.82 6742388.204 15664760.77 31178834.21 17462555.62 18746516.03 22493661.16 11567716.32 28926684.09 3965529.677 19288085.9 9806086.947 21255811.11 8504643.05 11934058.46 8136631.188 19020734.97 11938021.65 20059254.96 21116783.36 0.08716097076 22227670.87 15105595.06 20527761.86 21533385.11 25226609.99 34067313.92 24243563.63 8292321.089 31016777.11 9297401.885 21405150.41 28706545.22 30510884.52 24376387.65 6040640.912 7873789.24 9009064.627 19518848.12 10454320.74 119.728573 36162809.09 9269275.833 35697768.44 39924480.25 26401966.84 14792582.94 11942798.47 526815.2067 
8930141.691 38140334.32 8904164.365 33865312.3 8057397.498 11517437.99 15317788.91 23774942.08 30920180.05 54858021.25 54798549.17 7968412.656 0.2371107564 19702720.05 86023.12957 40822849.39 83685.7674 23400552.99 0.0002325775802 8673405.253 137346.1341 25709283.17 0.3756413546 8448.431463 27015333.02 5627895.024 158698.2857 29068116.28 23699705.17 11085398.66 8389238.134 23050052.33 26032609.22 21931691.68 31684287.51 31808195.17 5741976.866 19143471.01 15193935.29 12.9938701 8474860.033 29048291.93 8227920.564 19155166.27 24378068.03 28444007.8 8079047.883 17.5556785 17467321.63 8922071.792 
23264599.41 10291098.66 19057382.65 13127591.65 37777627.25 18971414.49 17416201 33598264.67 27839243.34 12398156.93 7995092.592 28710477.71 9445976.54 13489088.27 15897081.47 9736029.26 16789117.91 42824563.32 25204399.96 12735069.63 7741122.852 638571.0209 37174514.83 35575875 1051946.195 17788649.13 12728870.6 35100382.22 20087018.29 12.2784587 0.02091109448 19174815.51 28999002.36 26543945.62 17858441.32 430.3059245 14420096.33 7499307.656 11366578.87 17550381.12 17237832.14 18820092.04 27572300.11 20981535.35 36785342.89 25796743.3 1331214.625 27764394.2 26462.40357 8450230.436 
15377817.69 22605026.46 20531806.83 4.905130379e-23 3.110088587 20752046.6 28566601.95 9360473.557 11558789.36 25445682.64 2.184567747 14335386.67 20070947.97 6218031.813 26008325.45 370.7610085 18696401.59 5022621.947 11963196.53 11394522.07 9564835.101 38686956.81 11192871.49 26009213.11 12776622.89 16878533.97 27118571.2 52096145.86 57409.06463 8801937.147 10796017.37 19454826.6 2444.098379 7852627.783 9737173.673 33664804.09 17888541.79 3002.347738 33420285.42 29347352.83 17784649.78 22624101.07 37738600.79 21938758.39 18467470.62 6032103.561 23777507.04 1264666.132 8592107.563 9383668.102 
18459260.69 25451425.82 38484960.83 17874007.31 8476580.425 18490249.15 9437355.07 24162190.83 19039419.75 22628271.07 11374518.93 12661963.81 11321797.81 21524981.46 2.086737816e-18 8485544.231 50729478.75 23098966.3 16292.15882 26594247.45 12435281.25 8759842.309 43199226.69 29625.47284 19037640.9 650548.8395 7371331.678 16358739.44 17437860.93 17713924.87 32765193.18 22090573.39 13859942.23 21200002.7 6161787.125 14814166.7 20499996.41 15323169.54 26876829.48 29876705.11 17654545.47 42642333.92 767306.2931 9238979.16 21623161.71 24566090.26 16643880.74 18498166.82 46385629.43 74062237.97 
17244704.72 29607772.51 12685.64607 10229947.78 10660573.32 8117289.748 21287064.69 24281173.15 2463.688438 23191943.23 15176696.68 10070474.02 31402100.35 19116974.33 19724962.12 9292077.743 5626491.987 10048789.64 23786741.45 5174.46505 9241889.24 8541766.741 8728371.554 9578799.149 641953.5658 14721804.67 161.6087191 7728474.589 18794147.24 20345989.46 20012119.43 17006022.56 40084155.36 8637870.525 10439525.69 24807372.71 26973079.67 6129.476159 31817983.2 10585091.43 26747105.05 18052677.07 32136716.53 16210428.56 16885409.43 34521461.85 16873037.43 17033011.37 31795175.51 9937383.627 
10810064.76 2308665.797 11424863.4 40017037.44 13227331.8 16772005.7 38954886.34 40152283.93 8038.849721 6168683.084 37042.381 8708333.833 8893249.511 8265630.339 4463314.469 0.1961612164 23226025.9 8565753.615 3195653.648 63933865.6 17119866.93 9656305.877 12309544.57 26829942.02 24233022.47 7326643.123 38309694.91 19607230.73 23507289.15 28079781.53 26530067.56 5319531.742 8997800.784 43806463.41 7936639.541 19633039.84 20866601.31 21162.55985 7198562.934 29812532.68 7469184.836 6534438.89 76542.07125 50266244.91 28069965 20002448.32 27551489.69 2708.906358 22794010.82 7670.596824 
59.51280943 44646235.6 18130219.84 22843070.74 9936.826586 7969977.967 55405.73256 89550.82611 23525120.49 12696084.67 5174254.375 7880528.177 223293.9622 9611594.312 56743414.96 7751040.118 29423084.95 22849962.06 742956.0404 2.1140329 8040396.082 34516403.94 16107817.33 1036775.524 8092688.454 41631931.09 13307532.14 31462287.95 2943371.907 9370569.642 8336890.944 26200744.26 8532715.482 15247857.27 8300787.203 29911109.58 29173678.71 34516442.53 8533527.48 635679.9996 11225223.57 8570461.499 12293.67288 14988610.37 17027035.88 39081163.88 8349078.902 7750350.152 23076523.22 14448307.22 
20485438.63 8342643.784 7257976.312 26750104.46 9130656.995 21306036.39 19088581.72 31996005.49 3809113.28 6745633.89 8459965.028 36378678 44791416.7 18346137.7 6598748.809 49092.13419 27706737.96 13147653.07 10148678.15 9910822.079 20224814.2 16831180.77 17317076.24 28402368 20996749.34 14035206.77 11165405.61 26066157.34 9516987.027 8432686.043 28620439.3 29926051.06 365.7264044 10224149.15 18661047.72 20529871.26 41238317.35 19697167.25 17670480.9 59429048.7 17087481.56 39892105.56 31006338.45 9933933.399 24881102.65 12149922.38 14178185.38 17797661.99 24472016.96 32285693.96 
17096350.63 17887289.27 15574203.79 27878046.8 20672215.08 25332271.82 17907918.55 11178941.17 23884294.14 15882202.06 9986623.464 38294109.87 15484463.23 13499184.85 6722810.729 8048513.128 20855144.79 10385878.51 33209339.67 10825966.63 14817039.55 4163417.432 10594386.24 0.02066087212 17387203.34 28896422.13 1615074.766 11545902.14 40722011.98 30279860.43 6838563.888 19655257.41 37153621.75 5989761.767 27624670.58 773027.0195 7058221.441 24226508.39 13852698.83 32716168.14 26377780.97 20480964.46 21733121.63 7823170.777 21932992.2 19465145.81 18341414.81 7802772.909 17476395.97 53271937.21 
24994273.97 27391896.33 8965420.488 32564420.55 56578113.1 10750575.75 25155637.53 18432132.82 38763513.62 43535284.46 26194137.79 27772989.78 43.45757914 11839111.48 112545.1155 25040499.68 8158953.968 1295185.748 14296369.31 7934374.155 5589280.841 4.701299811e-21 30414023.66 14.9964477 8230567.978 13722833.85 16581681.23 353822.7546 15892673.41 33508465.08 26572007.18 27361392.38 0.7995851927 55887266.96 19778134.51 28082079.26 1051245.638 37251727.05 23246496.33 10497713.15 8532563.219 0.004769368924 57733993.04 36577.00884 15427088.73 16078585.1 1184.838875 38345443.94 17671780.05 17168379.97 
28634172.93 10088770.34 29917275.29 28607935.65 19942966.97 20638242.48 18375.93436 6830763.954 36866385.62 19565302.37 19145609.02 3063.081446 2909650.117 17370363.16 11893756.34 28815761.99 1.559741663e-08 456975.1122 8514365.541 14817659.8 16900555.75 41590189.35 15677844.62 2135259.227 15349155.36 34768665.37 10557549.54 1264973.143 29399696.14 46799258.38 8066997.429 18988017.22 2364592.293 18845254.76 1380.188089 8399461.886 19032210.56 10378798.22 8087044.143 18125330.12 21738689.73 6695900.611 35166072.87 18624817 51397719.64 31934320.69 12176438.54 9340208.161 18647743.45 29677697.41 
4.911167165e-08 38298504.62 17954149.4 11064132.16 5305945.106 29746149.77 4940534.772 21156160.31 18238877.99 12211377.78 1.315492397 51409080.22 37664170.34 15752950.74 7887779.884 44247463.57 27130.52163 29011411.02 20660916.25 2291543.373 16364140.99 2024268.754 6367.188971 22923988.29 15293237.73 1368569.241 19012661.24 18907291.72 11104908.19 17703396.56 28185954.77 38514370.44 21618205.85 12382704.09 5498.182705 13311677.93 15665846.05 25948603.94 24664125.39 12502589.97 9946894.859 19172348.73 18634949.77 45593946.41 22853668.85 20357935.04 42581895.26 27121578.46 11268789.13 7601113.885 
1925859.845 25364469.27 1485940.614 26018702.01 35606485.5 9011177.5 2390051.528 13901549.42 5757.264036 4.976365763e-10 21898225.5 25155920.98 23597067.48 41898706.56 8.549330036 11302934.94 8923823.992 15918466.49 25952655.03 32391305.67 19752352.63 16384560.03 9883025.126 223969.5427 28993816.05 8794541.003 8244913.787 45781636.33 21494496.79 1184719.278 24865964.04 22224674.14 18166636.11 7300.565917 16634695.43 19286741.47 7024716.243 41624350.02 43997520.15 18580644.69 40258931.96 22606204.01 8373828.987 64436.57413 37650213.14 46623967.38 15058576.48 19894024.49 17782220.47 48356134.77 
4503885.887 433199.4807 13847309.19 31248594.34 11897313.01 19684745.59 64326.37621 36550269.54 16072725.32 8445225.502 16552788.48 18501440.78 11113201.57 29699118.21 11901448.63 19537600.43 26085018.22 444.057842 8227134.493 25605665.17 22459150.36 26223344.39 32665571.19 16631359.37 9161048.112 37460555.62 38533490.66 20809299.08 9248863.801 9.060833453e-14 1393.633586 10075806.01 28060881.9 17572538.38 42233742.82 24786320.96 13141357.75 9457433.583 15384597.36 14509232.3 2.460362973 44538751.17 34168090.07 11912610.05 28553523.49 26576374.44 19035199.21 12656490.84 43972718.29 7775163.007 
19961729.16 9502773.287 18188835.78 9244519.004 194818.8593 6521500.791 10322811.31 8485526.015 8489641.575 20026397.72 23442871.48 42226430.11 24259419.86 5859090.024 33096848.52 8408332.59 8729190.105 7286547.604 2201.049198 21639073.97 19149820.16 21141.58424 11292970.96 10128643.32 3697594.699 16419887.14 26511046.1 14976860.34 1401782.118 7877246.305 14727363.8 11739583.98 33600283.32 16851103.11 12799817.68 17745684.75 26197501.08 15223135.62 378468.445 4.207716547 10489805.8 21161233.09 10496307.03 31776172.39 36384767.44 19056018.82 21458945.7 13550943.72 27014971.92 10567564.57 
31040504.55 288.0797139 17113652.41 16382681.31 11747049.62 36650216.08 6206103.409 8690815.684 20572747.18 39288156.68 9820376.629 13389953.3 10297413.84 11368311.42 20611765.04 20198154.51 12747148.48 8051727.951 37134.67869 40483419.81 10426643.34 6043195.389 358500.7717 11301627.57 9771419.997 40671375.8 20391367.5 28178271.93 21882497.32 8140204.13 24234484.84 18676326.17 10230087.05 56975960.35 36989963.28 15765409.74 27269453.19 28712542.13 5212464.999 14414149.24 44209499.29 24847286.03 16649048.36 24377618.94 13529012.31 18110851.79 16622248.44 37037655.36 9282384.591 2135.507329 
677820.297 11949421.09 1205966.212 9418336 22290306.72 13751497.63 7900763.124 28003583.19 22125598.71 8053012.329 16043796.25 12.87419351 11397294.02 20094550.61 8787399.266 8359245.758 20692174.73 15849424.93 15881719.19 9546961.147 19826392.36 23440715.03 23408196.65 30846313.24 22801374.68 14752650.7 7723602.15 15649712.52 14233883.87 13486529.88 18684716.73 26660107.85 8963118.303 13319169.92 14425781.76 18540885.54 52260137.09 56657.20764 31923142.48 19123797.35 12622418.3 29441209.86 27431190.26 22444575.57 7073343.824 19898980.73 28658290.93 2772061.097 24039.66807 18490813.74 
10712493.66 24666360.16 9741263.12 45639657.88 17849214.44 32330418.85 37480277.17 7122883.06 27325058.76 13179397.51 3212.078707 33174841.61 34467774.96 133269.157 29883079.42 20446144.2 8462467.349 21412771.92 20481801.5 15793347.2 6742621.673 27177339.86 9180975 10240866.99 41085019.74 12999082.54 5.358731407e-11 30961137.87 443485.8135 25582030.27 36482346.41 13687031.72 23731943.76 11939766.82 23470441.46 26239193.16 15152408.02 3.746487468e-06 4.905624461 5790.12032 26952329.39 17592594.1 27876886.16 23665737.41 16582174.57 7433604.518 44913185.89 36044801.69 28076097.29 9667168.583 
11464948.59 27874901.35 11122558.6 10535908.01 51961.37013 7707846.212 10443176.91 174032.6994 25345785.37 26848584.68 2489497.388 0.02262618198 29902450.89 45045246.81 59773003.31 10528504.4 11396287.91 9626574.602 32139234.58 18301390.26 12633779.3 335786.6715 12525061.25 9690179.19 11221161.45 7901910.506 19282173.46 21404172.37 22864277.43 12518697.52 21563054.6 31424968.31 24471770.26 22604111.21 14967499.87 18868290.17 27537833.96 12523527.86 29915455.75 18224110.11 9185571.157 6812125.673 1433723.082 36515210.58 55720694.44 20451236.33 489373.6076 1554516.829 47186242.18 47841257 
0.0004929585809 20552314.26 8269450.799 33091764.56 18770257.32 16473493.49 7727979.589 32610669.56 21115036.25 33498814.81 16040628.9 27836965.28 36472430.21 37400886.94 530.0343972 28779413.26 23808519.04 43683784.98 9773203.853 23346700.11 7901682.758 22483122.77 1396660.797 26622830.34 8385309.974 14721660.7 19431521.13 27377981.23 11830677.26 27546975.8 33011738.6 17162521.8 10677535.69 33695471.28 13001390.12 18884405.16 18942261.53 14591277.16 4033706.871 1059190.429 7753010.371 37531966.66 101509.1384 3003.468827 26704561.7 9885610.332 33038187.4 27110954.11 17330283.99 9026834.939 
20237947.79 21819709.52 8769171.997 21174344.27 726115.6762 29930227.67 6102158.372 25950176.94 33274418.38 11274826.4 1170747.996 10065522.92 9008388.721 8720761.636 19150770.06 12356.16694 9768025.682 7781118.502 8211667.247 26404991.14 39093522.31 11232703.46 11638448.2 43552146.29 161.3265633 21405641.52 16814456.99 11611872.08 15726550.05 5172785.046 9261128.854 1050482.912 28815695.46 47479558.41 9723939.185 7114587.667 43139938.76 36269911.01 7377394.068 24886516.32 17340093.6 20850085.12 28189187.99 10810.90128 48638689.51 22072084.8 146406.745 3172412.055 667163.6535 9297668.186 
27626762.24 21531629.4 30917272.63 21341136.87 24348224.67 31929910.72 61637.2679 35686974.83 13964306.86 20731920.16 11543337.95 19402922.53 7790596.697 18130696.07 19408657.83 16813179.74 3558268.461 14202243.47 11268207.17 603782.2237 43430017.6 16822765.87 25670.36957 13907.5698 59099218.46 26336749.31 9462273.262 17794009.64 15880107.45 35705638.65 15048348.23 20943358.31 16501614.95 9394690.476 20213462.64 27645987 22971227.59 39263741.2 7999141.368 233349.5137 22735249.19 24052764.28 19254714.52 19699828.77 17036211.61 12627817.63 24766822.47 20719958.44 11110432.36 7543657.753 
16499920.96 8449901.348 7129929.776 29681047.99 206628.7028 13762095.4 42506774.37 2357.690595 8.551565274 18205052.23 12493733.54 23777482.66 20631334.52 29669241.8 39516816.59 27707.75135 1909.779622 22068005.73 17135884.44 10794381.32 13464143.59 22890710.8 16927796.16 7020206.441 2268822.958 56636.36549 24793992.66 20840964.97 12776237.1 17168574.19 9690883.698 7722989.704 386579.2493 56.10651636 32120658.72 75088.63317 14528250.68 33684963.05 15023630.38 25755704.91 25483689.5 20433759.04 37954215.12 2328.017604 8331764.98 26421535.09 9579697.629 40624087.47 10955234.14 14118.20924 
10407517.76 7845749.262 36231561.76 11035.54491 24855611.06 25507093.26 17573932.55 9038035.087 8197497.858 24402706.43 11623210.6 19058691.85 27229526.22 23425088.73 19416420.5 28205870.25 16140994.29 9778143.143 36329582.66 29535344.54 33625281.13 7846107.174 22472429.24 14201671.74 12592.81749 11728073.37 19570829.25 5749005.332 15051886.75 18039965.82 12136745.24 13220968.74 3534532.87 6960065.064 2594947.672 15340867.26 25522850.27 15817234.52 17089487.32 8497245.296 21290342.44 8757486.541 19025737.44 6994.553231 36876610.38 9245540.158 11595814.53 21625990.42 6565691.025 17547751.95 
20985319.69 22617948.01 796801.3685 41370625.65 6976725.191 13879.46489 9364317.184 26174104.98 1473.155072 8831818.252 12725722.36 10725.84846 8363986.316 203.2439291 17618116.51 131304.2525 5069625.777 18477557.01 12113015.64 4048.111492 22664792.98 4417.731579 315900.6342 8252943.539 7.212033059e-09 8849828.41 10309807.48 8604160.342 139124.4215 16684954.88 20663602.12 20566077.29 21312278.29 15185459.01 10542.66272 35860341.6 17207517.62 20666829.34 20141165.91 36318902.9 20835409.19 26082668.51 25128819.82 6161391.391 32867206.16 25317666.47 41724696.38 11489945.71 1149672.521 9088881.202 
10856986.85 8912179.561 32154507.37 6938786.089 19625050.52 19962016.85 6544648.524 9305883.746 8465388.646 36477520.15 5305424.243 7738229.373 8987629.791 3283841.128 10788294.37 32387695.96 9673130.494 6155881.346 36198201.28 16707037.43 9.572263361 18785225.03 32573230.58 11745454.47 8260644.812 661052.1417 7889752.316 14598779.18 32085266.07 25578070.45 19637882.67 35617619.2 13067284.58 14303334.6 7923808.556 0.001064773454 19279326.8 9363547.24 9039398.428 23723424.73 26833172.98 7777264.187 3876287.897 7956715.768 12306832.41 32964999.43 470796.0912 18169447.43 9425722.04 9494365.851 
25016355.47 20888824.33 9038417.009 17622366.69 593586.8398 20754451.53 25504801.15 27924347.44 8555218.636 11657335.5 8181402.903 134387.3283 25433918.7 9115417.639 3.908300634 10585932.6 8862894.994 37888089.66 40218263.97 11622763.51 13564891.15 24186685.95 9901153.383 7117643.354 7902537.837 1.985285132e-10 15698753.71 22526806.4 14754543.87 7579930.521 10345888.62 11656209.16 8588686.216 12078905.78 3689352.478 18297360.6 15544469.14 11382529.36 8961843.339 17861005.06 8912440.999 3980158.917 29485188.8 7407413.283 18239992.96 9192275.706 4520.397385 33483306.73 20243599.04 18443418.04 
28481850.01 4575716.998 10479716.95 17477389.64 16932929.34 19209396.19 17406589.14 8226466.729 18167015.62 11644499.18 145.7139579 20146699.48 16839705.46 34699304.77 199990.1265 19609894.38 16713908.94 28092638.85 30622622.38 10379825.37 27011634.16 202311.7967 9772140.844 469374.9593 9746528.891 14478760.99 18671613.14 51270772.65 21097283.35 13700715.42 31959779.86 18888446.45 28106481.42 16202686.98 19451770.07 16.25013556 34332885.85 7059168.595 8188148.842 7514704.666 30475695.1 9084083.246 19375485.04 15760603.02 7919145.15 8316633.455 1099592.218 41385337.83 1645619.866 14431.87765 
18815723.69 20498369.83 22802065.74 10711813.39 12783986.44 37708.47205 19623571.49 12660922.88 131575.9679 1289538.561 744114.208 23105254.72 11367666.78 17148.82686 8550355.595 59.47144181 27602362.91 9176532.319 10648403.4 17432466.85 6697855.465 8877506.929 21616571.94 705227.2469 8313102.03 19543539.07 11621780.3 9337233.736 9574522.195 25787763.93 659344.9211 18383661.11 41700.38667 2173744.664 25473777.17 27988240.2 26918882.06 1718634.616 875013.6034 3947331.526 10764740.09 15514130.81 37133270.95 11992092.39 44511792.59 137084.8355 19087829.15 0.07476555962 22952475.95 18091514.17 
8796971.309 8857057.501 0.01325788639 13851297.78 21774902.56 34032646.72 10815129.87 22869837.72 5522.522958 17255056.12 12144460.84 28047003.23 30381263.32 32913176.3 18554843.03 8163.242856 15005694.87 9628478.389 15393193.84 8097046.564 21479746.21 7362714.432 21280287.37 13514610.32 17498903.62 2677254.671 12674761.3 25511319.37 32587322.38 16468581.38 22550161.51 29848517.14 14610427.65 22740485.48 9177678.397 11020325.86 8432768.806 11591221.85 17110015.06 19770647.78 23460401.82 18655059.98 16639904.1 7921984.761 28336806.53 20163332.49 19732474.17 28445620.4 40930781.39 16517406.7 
8575.397181 12261676.69 8294018.258 8403516.226 22388908.9 22461606.67 937.6246705 18312929.13 16339573.97 35254125.98 13326136.21 18968219.55 21598942.34 13188433.61 15477738.09 3052.998193 16629813.7 19485628.28 7045183.799 11212603.54 9503667.915 19286899.55 11787006.8 5437777.79 16896498.15 9507664.973 27623899.44 1161816.478 5148.889335 13435691.98 13752685.6 17018495.27 10919727.51 3973575.449 19943952.07 17182332.43 29991060.37 26021936.83 12655953.68 19553729.08 32225515.15 22943976.04 23655209.9 17897100.9 42630795.66 15120066.3 23908903.83 17676315.51 35127481.14 10239127.03 
2596932.921 8762156.035 84487.72704 465438.4737 3444424.301 11645982.55 7917647.845 0.0001248780016 35266804.35 10966541.9 20693258.77 10642857.77 6567783.156 7771188.526 17876960.32 3003937.911 8977793.741 7696751.987 1.36790478 18777176.52 2273535.124 2248882.831 3762713.324 7594004.154 20594955.61 2540677.762 531271.1028 19963283.73 21848185.52 20851555.54 23687735.58 8944615.159 7965086.766 27300303.56 14901552.34 23473559.97 27838140.49 43084755.34 8062150.652 18780390.62 20843045 15043669.73 31920563.78 9347310.992 13790167.32 49161508.53 9068806.852 31880166.84 23708242.63 15767855 
16097068.45 165577.3364 10490580.49 35960673.97 20668393.69 9885.492802 9850233.599 32204323.94 12680549.77 27242589.97 5352555.386 24228540.63 7898098.965 19614547.1 49047643.5 1553205.188 25255511.83 7900843.677 19248.97317 10822265.48 0.009730699937 26808492.86 25339006.19 6468485.769 11575664.64 30128559.66 10370778.13 39.10229064 17220223.14 9560953.553 25035316.3 44800819.65 10584594.18 29693132.46 17488860.52 17701115.21 7629490.008 11021777.22 32479680 20983104.47 8064833.08 20690514.23 4123521.822 27694927.74 1772902.576 23948240.06 30697994.38 17986239.81 19642332.94 17948586.54 
116047.1216 9276042.475 9429216.906 20922172.25 10161551.15 18629828.42 16.86057042 11911023.96 23365505.89 28851305.2 16369140.68 9.91276459e-25 19202790.21 3.098888982 30207492.36 7363719.749 19013891.41 21868346.88 15262683.45 12563402.63 17985587.13 16419378.91 7983320.225 56999.33265 7795372.67 3874293.989 15551171.11 39457821.62 9181919.844 10255862.64 30857222.65 31318918.57 26553416.12 15036158.21 24660009.05 20626103.25 30354551.37 11002474.69 7972501.063 57495233.11 19895547.49 1183348.063 20073647.2 13050474.07 7465.570575 22976241.53 15447596.84 32421751.37 13018217.68 20094305.37 
18210959.8 26376223.1 16343234 9504303.457 20505988.78 13342730.25 15491270.32 33.37399717 11080702.98 8553958.168 27081579.03 18890741.2 1970389.793 46036756.32 15714540.26 8205707.386 16737200.54 18579867.08 10058427.37 20681040.59 19951144.56 10008873.8 32200269.86 36183981.78 8937065.787 12686883.09 460632.3085 19445827.86 8490138.232 13764055.33 30230475.18 39410480.96 20516270.95 1324746.193 21617837.08 12861991.19 31634851.56 1189.135952 31276476.68 1756028.669 20525261.1 7310507.214 8853202.339 21975573.9 596536.5314 8653482.213 17445558.09 40784234.86 9871535.071 203.2377205 
12672629.2 25062062.56 8744568.256 137938.5844 40126146.23 92221.02805 28681086.74 43708025.24 33981388.95 27784295.33 21692914.92 39885199.19 376.0696956 19067835.87 16746653.72 7754391.53 17815368.75 39733336.72 17278095.87 18701217.1 16065851.75 48788100.68 51.04716347 18362966.42 11671512.33 17357614.07 6660087.379 17668611.91 13326875.03 15941628.81 15670237.45 19299905.18 28532889.46 13978801.94 9769770.151 10369364.44 8169804.257 10947740 9769649.141 26990981.63 619.3869348 32154277.47 33276213.09 2979643.39 16938058.53 18103278.53 13646924.76 804.6261059 335510.2919 317437.5986 
12189263.42 24644880.77 11335370.87 9475544.317 6854548.276 21217002.14 7318870.758 8330603.718 11466755.08 3655.002532 9626563.169 6746.793401 787.5004662 2271659.825 12931882.59 19800852.33 5087249.966 13548.74552 19474564.09 10909356.43 22006384.6 659866.8945 21165741.89 45899382.92 6621131.383 100469.141 4607586.168 10412296.89 45158467.44 13217370.32 35642742.57 31576892.57 32136542.9 4.411943047 4518856.372 11873851.77 9977976.285 7661156.184 25272392.36 8096270.324 5650571.651 36698773.64 23383677.88 15643265.3 8613876.286 17826534.54 11258974.72 7337136.137 29583948.63 2140929.74 
37076534.91 30827478.78 7027218.822 7945279.059 16271430.15 517344.1426 18832581.97 11258482.54 26188748.07 8264426.946 251.7522122 21171778.63 9619543.962 8024846.846 8369184.202 22571200.29 21497277.36 3.921357181e-11 21360723.75 9562796.828 26802241.25 7525894.738 3221243.152 13392956.26 13075909.1 18162399.89 14491983.71 8065571.338 8733194.523 9623256.637 5447556.99 7594598.782 11642192 26842317.17 23510834.22 16843958.47 75627.40556 32334781.54 39892313.6 15963825.27 3024359.765 0.2054217309 13515914.27 8554035.895 11775184.64 4158.023915 42612487.78 44782568.79 5838296.723 15091263.01 
13176308.89 15638776.05 0.002269276223 8686027.929 14531947.03 16488473.19 23844481.93 44103977.89 22562217.06 15822758.89 17363547.21 8694480.213 15038455.1 20028682 12359655.57 22251555.1 7933226.01 16706608.94 22957673.48 18103923.95 20856668.13 22785244.26 11912360.83 19239983.02 115523.4691 39075786.76 17758366.14 30284813.47 0.0002888964243 10426174.39 185024.3185 25387150.78 9370745.735 15722040.31 25548489.62 310731.1089 17530100.25 13147133.91 18345450.83 6187885.353 70186360.72 588487.6198 252083.4667 40182812.63 20146072.82 8508820.007 10714085.33 18580215.74 27664486.08 21866912.4 
18086582.64 7883913.919 51203349.76 20686882.18 4914401.064 7789170.718 15558799.51 20334511.58 32078571.11 45899.67911 40378922.4 5470553.728 15549645.45 5705572.826 25655565.63 38106270.05 18935088.2 43797945.35 25311021.59 26677111.85 50325741.16 4812769.871 8275313.022 27141394.42 9399946.363 17363716.04 17447855.67 8204421.545 10290856.03 19008555.53 1164126.568 26041279.49 201955.088 5194475.614 28717792.97 603900.6921 13249924.72 21511219.6 5981229.252 39282472.8 16861794.82 31964080.34 81615.47744 6158739.627 2223379.869 10676645.29 18007079.13 146.1548132 27810437.91 16798766.86 
15066966.51 10545942.62 23791755.03 8265487.869 35891116.68 27956289 25001823.77 19228860.88 18046959.7 39159269.93 387837.2138 23930013.06 938744.2935 14307186.84 25715614.32 4746994.356 41086172.44 4512104.073 14134408.66 39455933.21 16017594.42 9731809.775 9252446.76 22474783.17 6049105.158 19029515.24 4667359.386 12491057.45 230934.965 23729349.66 19758323.04 5321030.858 14288709.52 17976702.77 19899372.44 23273893.59 13855966.6 29212385.4 16927607.52 12418763.67 7963004.96 27727183 10366811.75 27844104.31 13819798.53 12567522.79 13129062.5 21775598.59 9492394.531 10408933.31 
20915634.75 12858482.51 35688092.5 7579320.292 9196730.799 24854799.79 1003454.142 15569156.32 22725702.65 32799196.98 341677.8063 8887651.234 18834558.06 14351619.38 21239500.32 8149463.865 53201328.1 277956.4153 7740428.66 25282696.6 8597514.238 28384733.56 22803598.26 6478796.141 12766299.03 18093990.98 7443588.775 12386004.78 64156955.36 8345095.711 2087986.035 16250649.9 12618969.78 46421841.95 26995083.02 19742353.76 39889306.6 33159845.1 19700268.7 13688270.58 8167879.16 18813125.04 915660.6824 21222033.22 26549362.54 9002735.544 3590895.852 45237706.78 12031057.87 113152.7258 
20634798.91 7809568.465 8595850.374 1444374.18 11472224.73 18273476.26 8857737.917 5528935.308 18805760.43 8310178.413 32840625.92 26090906.46 18196569.98 43152918.13 15107748.98 14136143.27 35208683.68 11687098.6 10880256.94 10246084.92 35446338.81 298205.5225 10739961.42 32468620.97 35.46688074 8602810.005 17576504.86 25721554.77 19866868.06 1235.730119 10273014.83 18230698.52 3438060.882 11574386.25 4599738.26 1153911.21 27472824.65 18550144 3116315.587 7392409.852 21496451.31 3103909.043 14899231.62 149767.9634 38621572.42 24527096.2 10112954.58 21871278.82 11736190.81 7720580.724 
6164836.155 1.435575516e-12 23314753.88 1483827.854 16362433.52 17854032.69 10943662.93 16937452.4 160.8086897 4877463.677 15116180.2 2633355.946 7828922.77 34447244.9 1329582.969 14214326.75 15960595.49 19884590.45 26751264.98 5946007.859 11690673.39 25161287.32 7733193.966 10867716.1 31642294.52 10435003.27 6934630.211 23030556.74 19018389.82 3030477.923 28492730.06 43850728.75 11654775.71 3324190.554 8140800.279 28.6954288 41481060.4 10837141.88 29506965.6 6298004.803 17189967.59 15005959.77 1604006.919 194327.148 14115173.49 10075821.49 18612407.88 8102976.664 27971915.82 8983320.607 
7445733.602 31183545.15 10158809.68 11203464.62 263685.3964 29402848.69 21743547.96 14674009.01 7530792.794 10.28287952 19586203.25 15600299.03 1593248.583 23723680.7 17305984.73 30449165.58 7114250.007 8306361.784 6425443.222 19554148.67 31280222.83 25946838.7 9068500.57 15665905.78 31831745.09 11183530.9 8038254.36 26743692.77 26062507.34 13566807.93 30414636.52 9500162.138 19063947.57 36355233.32 17345984.12 11423987.75 16034444.96 139096.0593 11142809.68 20643643.99 1966431.002 44329622.3 7671711.361 38574749.58 9408888.344 7248347.837 12882242.57 10906969.49 8747.481112 17837585.63 
1850269.462 35470291.79 6697888.81 9435370.643 12559891.13 8294948.314 9229962.998 21856475.55 7999082.629 3480957.102 12573103.46 26478499.73 10232109.72 40908281.37 2.318665722e-09 17687523.25 7443874.43 5040223.602 20831.78036 8971677.43 19275230.68 16168807.06 20899399.57 0.06719721951 1048040.286 32883167.92 17514624.55 9469327.709 71378.29554 7976676.242 25867230.54 14173831.06 33236327.04 11.22454877 27658964.28 8909539.337 31089770.69 14452764.42 8763362.765 10312099.23 26805033.7 21884934.92 816812.6693 25620736.45 13618580.49 21042850.45 3329101.365 10504228.4 18501000.59 2119938.239 
14621781.51 8019114.155 8094732.351 12872140.46 17379169.07 33464172.92 8181879.139 8625673.817 74535.02476 4977435.142 26930306.42 11666636.49 8498924.161 22815852.13 9117634.417 12202376.49 8501122.458 13211073.65 18351858.48 1400377.375 21499526.92 4226444.955 10483917.74 21999422 17050654.32 9153999.433 15754801.34 222973.119 8806174.902 12332736.32 2655118.465 17572232.66 758799.8555 4984.968402 17282920.66 16323956.62 6019715.999 13248306.7 10433287.73 16490624.17 6962016.67 15015581.98 15885147.22 20062385.6 31350953.91 9702215.205 9889188.112 21783442.57 8047882.981 8517248.599 
11268855.71 13004270.79 24172589.82 617443.5644 20928331.2 15066693.05 8825787.075 16972416.91 43759.44767 279662.4796 16407580.64 9410731.558 42903794.39 139368.0588 442814.7105 7364105.941 12429244.37 12526337.41 13132547.34 7130088.187 20263259.38 22459252.36 36270998.93 27030249.63 7856289.422 11195582.79 20821030.74 28957942.09 6952627.553 16783019.48 23763450.03 19811265.46 29312256.61 20998113.79 17559245.38 22400955.4 25246162.04 9180195.298 25006456.49 9022770.461 11295746.95 9348436.079 22086272.09 49050731.28 20308068.73 35986412.76 25357576.53 34793417.81 38700046.4 10978675.87 
7274053.313 9806979.859 7737904.184 136039.1562 9666876.934 2167602.86 28578184.62 21961504.53 36551643.05 12570784.13 42683842.87 3726261.789 6779819.883 28403683.99 16674785.52 22525586.97 4215244.889 9199318.8 7524264.491 0.1146238683 8702733.146 24949545.97 12309141.03 2574713.9 17976721.61 11040847.43 27718019.58 16509411.55 15181452.28 15458620.46 33900604.37 17502161.84 7746527.644 192107.4732 7594385.026 5485573.67 23857187.91 18684090.66 18932181.72 6089219.027 1854966.49 23995920.76 16735711.98 8839030.754 912.4142536 21938163.59 95244.91899 24067040.8 19418096.02 1320717.531 
# Errors [H51_split_1/H51_split_1_1570818102.x_y] I_err:
7251.300495 15758463.16 7785425.039 11731892.77 18454825.64 13264364.36 14219282.01 16580469.51 10909864.17 15979272.45 4042845.116 14429575.02 11323056.47 13529253.08 9080777.374 9795604.891 9965296.997 15100227.9 13077444.01 14017918.9 12962031.25 0.1067294272 13446187.19 10827550.57 13432156.13 15227905.35 15003644.5 21125377.7 14794477.63 9271069.2 18748565.22 10184793.41 14323327.89 16360601.59 17095762.68 14431058.94 7398243.976 9091590.752 9862056.937 13796203.01 12071609.56 146.6369557 18385251.81 9309854.885 19020550.51 19258186.65 16710479.36 11063509.36 13339847.76 645214.2226 
9645629.974 17692234.36 9016410.008 16837267.69 8826436.729 9275669.428 11729175.45 14249591.31 16552166 23214379.71 22131283.11 9201130.384 0.2561038076 13476667.61 96113.53557 21271481.92 93563.49766 17228527.82 0.0002600282153 9697160.511 121689.1447 15448873.12 0.3945674784 8905.379683 15355844.3 6165050.112 169655.6032 16771666.39 15539300.15 10805128.58 9189949.933 13677956.65 15775678.54 16249193.56 17742870.73 19015431.21 3669574.49 13249307.59 11309650.45 14.23406486 9164977.796 17558305.4 9010759.787 14083425.6 13980600.53 17439732.67 8844460.717 19.23038292 11387416.24 10302321.1 
13672124.06 8556524.782 14239523.52 10553723.27 17379114.27 11770931.41 13110439.83 17351088.09 16813397.61 10017667.88 8267015.449 17463886.69 10202503.17 10396355.48 11096088.4 7636920.375 12568032.51 22194113.26 15067565.97 7790904.531 8479975.036 492214.7145 19773274.31 18462734.67 1103290.474 11803949.09 12798972.07 21297260.87 14198754.46 14.17794288 0.02414605205 10774012.42 15116585.68 15134949.96 13934689.67 434.4492918 11043576.07 8100167.53 12451463.1 12920598.21 13203428.77 13965656.42 14944686.75 15775641.45 17269420.83 15636339.82 990108.1956 16287774.54 28988.11071 8450230.436 
11547126.21 13623989.13 13435508.19 6.007533275e-23 3.591220966 13007951.48 17067216.6 8780661.196 12482830.72 15651581.51 2.262856755 9204831.341 14009881.38 6533914.403 15883593.58 400.2971441 12114742.25 5615462.026 10825955.62 10004607.87 10668014.92 20143867.18 11797866.16 15682415.27 12985139.52 11959501.12 17893578.21 24650760.19 60890.76083 7663673.34 11030564.39 13731584.19 2639.074275 8088871.09 9529427.449 16392626.39 14164209.75 3356.725693 17381273.97 16767412.94 13193583.08 17216165.88 19813650.45 13406657.16 13088096.8 6606207.974 14505421.91 1288821.969 9113303.817 8833443.786 
13015073.66 14710390.56 20312223.65 13720217.19 9154862.97 12846760.13 10091586.81 14586882.95 14463469.51 16494224.59 12717098.77 10495606.46 10313530.97 15220783.18 2.086737816e-18 9000276.965 22548474.98 13422824.84 17078.90771 16236823.32 9598523.82 8864431.839 21036043.37 30168.99897 14035089.25 685738.5431 8241399.358 12099168.55 13360530.32 13318757.09 17647806.93 13396442.59 10206515.88 13817679.12 6587434.265 10994805.66 15036965.16 11266432.59 15216505.62 15762651.95 13227424.23 19941823.12 801560.5312 9644264.054 13037362.13 17745654.89 12238714.19 13554622 19241571.19 26884676.07 
13172779.72 18238913.97 13896.38625 9120405.689 12309769.75 8892045.4 13728560.47 15489012.07 2452.874174 14634475.04 11362736.28 8699437.877 16183593.47 14450622.78 14994595.2 9928690.746 6013962.895 7531660.113 17522880.2 4146.830363 9871428.984 9131532.721 9561451.977 9460268.253 703224.8485 11076817.16 144.2443088 8347706.62 14436502.18 11834685.54 12750698.6 12667048.74 18677107.44 9110679.461 8577123.87 14963858.69 15981769.4 6452.324179 17644099.63 10349770.33 15561480.09 13227382.07 17865354.71 10881342.2 12585015.72 17925729.77 10241598.2 12481874.6 18323750.48 9543639.61 
13239571.31 2448709.285 10503012.31 18841403.77 9692662.251 12913504.42 20309779.74 18614753.76 8543.894857 6073885.79 42772.85648 9133003.034 8760965.598 8634589.257 4638018.423 0.1802817024 12984718.16 8727081.222 3389496.928 25001861.34 12673671.05 7137387.281 9125729.607 16670824.71 14571842.49 7678111.882 20317380.56 14490287.76 14243480.1 17021807.49 15614883.22 5431576.615 9451696.305 21605983.19 8271410.165 14659348.27 14474412.75 17792.88708 6753822.269 18096238.34 8624671.669 6741601.742 71979.7349 21293532.17 17127755.41 15527747.08 15061443.71 2775.71566 14412313.07 8402.717666 
55.89587143 23413220.44 13179024.39 17114704.95 10885.01146 5623437.395 58766.29657 86045.37021 13523247.72 11766502.48 5188492.738 8768091.379 241178.7891 10746089.03 23607240.77 8170302.001 16904710.16 14084844.43 639918.1635 1.767634252 8651607.453 19490251.68 11290086.02 1090894.539 8583544.524 20691071.25 10336701.79 19029427.53 3118992.016 9938957.291 8628162.361 15890459.2 6604946.217 11565292.88 8342596.324 17787711.69 15843103.51 18047554.15 9050528.974 685061.5389 11900279.12 8073881.145 13245.69517 11807379.98 11806268.76 20222537.3 8925354.963 8484830.211 13714922.75 12351626.88 
12253307.3 9138908.266 7838298.061 16358474.74 9862151.648 15513406.28 14461290.32 16963030.77 4258424.903 7211377.593 9267427.363 18980412.89 20617510 14093880.55 7303149.395 39426.54871 15812161.22 10375985.72 8657110.278 9039723.484 13722583.59 12894104.33 12655963.02 15225126.37 14292203.72 10536496.98 10731430.82 15360885.44 9981500.202 6123303.253 17480269.71 18186239.72 395.0284033 10725618.19 13873587.86 15288260.3 20140802.19 14990300.55 13220482.57 25495318.38 12527986.64 18942364.01 17106867.62 6251124.476 15242670.26 8535517.549 11658159.95 12483290.1 12985864.34 16935002.05 
12976433.05 13328147.66 11593198.73 16885429.01 12391912.01 13968662.98 10766213.44 8687313.367 13997875.69 11742979.33 8430350.758 17860204.27 11623488.04 10732068.62 7047785.191 8602290.314 15396044.05 8682758.188 17733161.63 8970506.847 11829082.47 4095442.602 11277110.95 0.02221978115 12970982.29 17370956.85 1699385.686 8720327.734 20363643.98 16802297.57 7310528.063 14196642.58 19646894.92 6148722.925 15261540.02 487895.9298 7314024.547 15964952.32 10644414.98 17334046.73 16661542.34 15241876.86 13118387.11 8356655.559 13815148.4 14664322.29 13270034.6 7999370.602 13292667.46 22330752.99 
15299896.36 15953019.11 10980352.72 17296075.77 23264161.03 10847561.03 15237067.51 11832358.23 20231015.07 20052733.39 16587733.72 15175815.01 45.65852422 12969096.59 113275.6408 14907749.76 8622849.723 1316206.891 10658227.99 8691609.248 4419055.58 5.757892811e-21 17326908.4 14.84048087 8798796.2 10566194.31 12574064.66 289229.035 11695356.49 15349412.87 15117343.86 15296333.33 0.6175880845 22712280.98 13251654.51 17072999.06 1148963.546 19479483.84 15072226.52 10464433.24 9539323.855 0.005330680563 24223641.24 29432.71017 11087616.12 11951379.33 1266.646037 19578581.61 12579755.46 13040886.74 
17970571.68 10502948.59 17356571.76 17713436.68 13587328.18 15258650.59 19020.18061 4808911.058 19158494.08 15070814.7 14412448.15 2858.390594 2819782.047 12458875.38 12493409.24 17085421.72 1.743844193e-08 499491.5577 9041056.512 10254039.38 12344922.84 21703318.08 11935294.73 1989306.726 11281209.78 19219828.56 10874971.37 1385708.65 17369311.27 21543159.2 8364209.548 13523084.73 2492498.873 14179794.1 1508.028784 8803074.506 14423451.52 11368347.95 8577605.63 13583581.83 12593405.11 7343515.721 18293370.87 13917739.61 23184684.24 17556719.97 12770641.97 9576685.17 13167585.93 18237704.91 
4.911167165e-08 20054131.16 12970606.35 11268167.74 3742653.585 18035645.66 5126167.649 12847455.52 12079419.15 12952023.09 1.441006457 22524802.75 19524152.98 11784210.57 7993847.799 19770482.78 31327.62729 17034012.29 14427647.3 2424566.288 12928837.28 2217475.137 7798.182038 13853439.92 11821728.79 1058212.445 13116888.04 15286548.16 9204822.219 13897446.82 16561554.27 18886631.52 13098447.2 12847608.41 6347.607831 10635658.58 10199816.29 16234158.93 14920855.96 9772822.882 10316191.88 14341749.15 11807903.85 21001377.95 14971010.16 15325147.85 19845906.54 16359364.58 12304023 8324881.226 
2153136.728 15754921.81 1550114.94 14750978.15 18778648.91 9805112.445 2615487.154 11242744.64 6106.500662 5.185078404e-10 16497289.98 15577227.46 17410811.22 22124471.94 9.351826313 9240646.846 9337121.047 12124573.06 15843155.67 18394287.63 14512370.8 12209402.93 10475618.21 239430.16 16585608.15 9261272.702 7793244.577 23830904.41 15720476.93 1103826.603 15581045.87 16251616.84 13179502.27 7298.940812 12469553.09 13332578.25 7554043.814 20610879.1 20581393.82 13909576.08 19637027.95 12072684.34 8920949.212 48511.13091 19939931.13 21912150.3 12086096.22 12364988.45 13575956.25 22681882.71 
4806850.471 333780.9351 10579725.19 16325753.98 11057177.3 14963193.75 68613.87258 18860236.17 9898979.315 9121886.102 11870931.47 13784594.26 12003446.92 17054334.64 12403942.97 14194420.22 14165185.46 512.7537381 8885751.376 16101107.57 16811459.04 15797762.08 16940415.99 12299830.25 9641017.669 18667148.72 19173822.56 15062269.38 10340542.65 1.04625492e-13 1477.757027 10611408.34 16954279.74 13160810.17 19675830.28 14915040.66 12309206.34 9270842.061 13072437.8 9348591.814 2.514186217 19986285.42 18005095.95 12726821.98 17293698.29 16524057.34 13006466.6 10708499.99 19932630.44 8130231.057 
15261764.89 10027646.61 12912795.81 9634437.431 206608.3038 4963480.127 11272284.61 9047624.743 8720783.314 15310347.65 14155424.49 22348610.86 14734372.09 6048191.566 18692693.51 9210467.973 7897718.217 7676634.997 2411.1283 13403036.98 13137765.48 23159.38779 12136496.01 8683171.552 3931068.716 9979744.124 14592278.91 9858960.693 1458997.583 7944650.783 10382566.53 11876466.55 17394005.09 12601875.07 9757076.633 13218618.15 15924683.16 10205658.5 401171.8808 4.857704533 11490832.54 15984771.78 11114830.35 19368639.25 19147741.99 14065529.81 14105785.94 10022070.8 15759712.59 9700880.734 
18852943.52 322.080167 13769746.79 12247247.95 13131239.56 18885297.78 6798445.663 8684022.919 15205896.94 20522686.74 8847233.595 11996558.62 11269314.81 12057161.16 15561284.74 15223377.05 12333378.77 7866220.906 40098.81449 19277933.29 10853606.84 6333553.16 333496.7227 10852863.58 10444381.73 20933381.44 14832652.37 16370428.59 13307039.42 7087209.789 16814623.31 13842951.19 10684896.28 25286033.02 19468173.08 10736308.14 15717766.12 16540090.81 5709969.321 12924779.62 20170292.58 14673894.01 12516354.3 12819218.63 12054280.02 13525265.81 13078540.86 19707413.01 9719810.316 2135.507329 
419122.8145 9176104.891 1077170.127 8376662.69 16596583.58 10318181.48 7869957.385 17000544.32 12767978.23 8820869.77 12005205.43 13.90567995 12310484.54 14998939.47 8998350.289 8811406.754 12731028.14 11521121.57 11244677.34 7343127.337 15034579.41 13284882.32 15976178.8 18492099.99 14759305.73 11352330.4 8126090.573 12979172.26 11858461.37 11226088.91 14076318.27 16020694.75 9369462.024 12584226.97 10868854.33 14416382.09 20597404.23 60089.41233 17292225 12858554.15 13238266.75 15283612.45 16177978.41 14549650.17 4559120.733 14859025.85 17183223.09 2020972.138 15664.61695 14082167.02 
11976932.02 17628885.11 9739950.478 21295001.45 11435256.36 18476106.36 19539859.85 7411503.816 15181428.38 9688986.352 3469.441534 18459233 17557650.03 134347.1666 18309203.75 13439615.53 9046687.606 15765014.25 13432158.76 11636611.22 7386171.847 16852806.45 8581430.52 10862079.67 20676616.57 10515137.38 5.869458288e-11 16154627.36 458379.4259 15529080.91 18279202.6 10345100.64 15580417.42 9921392.309 12337717.35 15689575.98 11080237.61 4.5884913e-06 5.108817942 6368.270119 15779901.69 12745662.63 16698391.19 14467274.45 11283152.84 8142564.801 20977880.68 18474018.03 16971153.92 10168559.39 
14041636.99 16902152.86 12430778.16 11263359.43 41549.16072 8311602.398 10014603.8 190643.0142 13999002.6 14283257.64 2600182.799 0.02262618198 16204720.05 19286692.8 24212711.42 10913308.38 12741435.7 10397251.6 16707678.4 13551321.32 14124994.63 387733.0456 12988405.65 9598419.056 8350715.198 8304856.997 14576415.4 13741822.11 14452863.89 10903872.76 14638240.47 17013320 14698145.2 16611701.32 10822370.91 13437935.75 13926031.38 10646667.56 16163600.93 13485063.3 9672420.842 6762735.215 1310303.034 18326697.45 22357963.69 14827571.05 515432.5971 1647081.53 22932899.86 21183796.45 
0.0005692195387 12334809.55 8861518.041 17220088.33 11824981.59 12596689.44 8104606.857 17245887.88 15455782.14 17886910.45 10156311.89 17529827.52 16830952.58 18881077.97 559.5379112 17852653.91 17543643.7 19906973.25 7899223.8 12746823.09 8436274.873 13726808.86 1500807.525 16519610.26 8794439.53 11435167.29 14460704.16 17002650.77 12268384.19 16552390.16 17150438.76 12953298.72 10260340.33 18219654.89 9539454.67 13676110.16 14666868.67 10479835.15 4198069.397 1070398.476 8273157.88 19443985.02 113486.7545 2949.305148 16170533.8 9775145.028 17021815.21 16233006.4 13153784.92 10092308.27 
15480272.78 14999964.87 9600136.242 12482655.41 811676.9369 18400584.02 4860839.635 15597517.91 18809737.57 10898797.62 1264536.309 10721234.72 7855796.813 9192489.9 11688451.7 9743.855957 9742874.979 7519412.313 8647982.972 16289801.41 19446126.37 9587293.989 8781805.696 20009964.45 176.7197533 13669183.49 12519319.62 9790106.141 11641820.55 4313581.393 9241667.427 1107306.19 17329589.09 21909820.65 10290456.38 7684632.794 20729797.97 18837179.45 7784861.974 15354827.93 11925641.05 15863536.52 15376618.81 10867.3669 20241144.51 16558634 110983.3589 3308417.634 700965.8527 9620388.669 
13264472.64 13303474.19 18519952.43 15433339.85 14848170.64 16603611.87 64559.50249 19172027.6 10537090.85 15784245.16 10756017.9 15197672.72 8147853.128 13434585.18 14886264.22 13349769.64 3746527.849 12673887.91 11818140.98 636439.6283 22441713.9 12516885.74 16264.16458 14422.38241 24406938.88 15922820.86 9608476.496 12329416.24 11422039.61 18504107.87 11161584.67 15451687.5 12108894.27 10291366.92 15166106.53 16684238.31 17117101.2 19754122.34 8745811.905 240855.2033 12205888.54 15205313.96 14521872.01 14043794.67 12692843.39 9196339 15237046 13999116.06 12148835.76 8710665.666 
12356582.99 9755605.723 7408086.523 17397777.16 214814.1416 11653665.85 19955810.32 2038.499595 7.941659598 11565276.55 9349397.79 14403436.22 12214683.18 16770179.02 20140447.79 31994.15373 1672.513269 13329250.09 11375053.83 11626269.48 9892685.953 14080945.31 13343129.4 7197731.616 1844630.907 63321.38161 13793226.47 15846469.61 13550746.72 12741274.78 9469282.697 7988436.402 423458.599 64.78622464 18922557.77 83949.86665 13705730.82 17910335.44 11166262.86 14234620.37 15746554.17 15328374.9 19836493.23 2550.215511 8992884.98 15779761.52 9313702.827 20647236.78 10193360.03 16302.30381 
10970480.19 8269956.4 19037062.72 11919.70082 14662368.53 15540958 13115965.05 9585852.626 8136945.878 14656019.69 9580582.438 14486814.02 16229102.96 12859640.67 14920904.75 17111342.33 12079280.78 10118696.36 18862737.25 18206732.59 19847562.79 8283207.08 14184009.08 10542796.71 13794.72958 9129161.657 14242490.24 6145494.05 10899690.62 13457699.19 8831299.27 13929005.17 3334545.388 7440620.86 2780421.207 10961996.16 15335804.97 11671494.96 12507414.29 8400831.766 15724224.9 6959872.701 12739273.83 7690.50761 19161306.88 7929437.016 12396447.03 15943615.44 6920837.793 13119886.36 
16076531.61 15874085.72 592440.8329 19196450.56 7282853.541 14837.7721 9654288.992 15875206.17 1647.037441 7976614.838 10514294.42 10033.8453 8147572.122 234.6858744 13178447.97 143826.6659 5472013.298 11577644.95 13063602.14 4149.734566 15196881.84 4765.749392 317774.9386 8555373.083 7.286163834e-09 9307234.532 9346887.768 8842467.064 148003.418 12680020.03 10919553.23 15016878.74 15640704.8 9452374.542 11057.23794 18581129.24 12965758.43 15663255.65 14846915.11 17860715.09 15266872.7 15848188.44 15218193.12 6887901.358 17004435.18 15377339.63 21326650.26 8494994.125 1241092.793 11131533.1 
11869036.36 9626254.132 15676275.79 7359673.764 12237334.26 14913276.35 7316334.117 10051503.25 8571814.39 19394212.99 5811801.07 7374349.767 6661783.413 3382579.391 11101773.74 16928828.73 9582130.893 6580913.928 18758236.86 12568550.68 11.05309766 13098575.6 17180210.29 12668664.1 8626694.164 733063.8392 8305096.953 11120990.79 17243449.13 15074998.38 11526221.05 18452248.81 12725962.5 10526535.66 8404467.652 0.00118989422 13916174.08 9809229.438 9655855.594 14354673.38 14723958.2 8301733.664 4186865.368 7347784.032 9667387.03 19163595.4 357417.7005 12486375.19 9997411.726 10615023.72 
14947912.13 15259027.27 9518776.653 13195125.87 632367.3206 14610913.38 15359128.39 16984381.23 10477928.09 12187247.43 7966344.841 141654.1611 15843940.84 9234577.711 4.053746534 10286339.75 9217938.43 17920422.49 19027799.37 12327474.46 9632559.862 17568715.08 10339919.74 7502619.072 7971540.903 2.29240981e-10 11603072.7 14177920.44 10855145.91 8181843.776 8982699.892 12363276.79 9214812.487 10968764.29 2803719.233 12374417.84 11530753.58 8697207.198 10348244.62 13385905.77 9437605.564 4254800.676 17191037.52 6864941.509 12175916.28 9826070.17 4950.41138 17277136.84 12029228.45 13930638.22 
17551092.49 5283513.186 10926784.7 13056669.16 12958026.85 15130968.67 13705611.31 8332134.581 13250707.29 9921919.004 178.4161786 15325388.65 10286021.95 17861155.4 203349.063 14764316.43 12482409.41 17191536.2 18449809.76 9839623.884 15912834.67 198975.3669 10218555.8 490225.1533 8825706.8 11619379.09 13037324.39 23618474.87 12166326.63 10524605.26 19096073.74 14244788.84 16825634.6 12011930.75 14560568.34 17.79929578 16906367.42 7619934.639 8490612.22 8032764.075 18531446.88 9634310.769 14853268.77 11772571.18 8390706.848 8697318.437 1204542.924 19118832.59 1800089.652 16664.49689 
14010233.11 14849106.41 14856018.25 12368936.48 13478265.17 28606.2288 15207080.07 13428927.45 98059.64422 1339158.393 800104.8783 17214481.77 11276820.89 12950.08709 9004147.629 58.49128682 16809367.45 9299022.925 11121721.72 13390429.05 7234510.727 9168707.631 12880286.12 753116.5959 8811471.955 15191486.64 12550996.27 9414629.781 9840900.288 15510069.53 704403.8842 13682471.64 37885.32476 2323604.007 18758880.38 16914990.65 15355836.7 1704503.35 927311.2404 4142018.769 9327770.327 13674368.52 18738482.79 10923575.29 20750864.69 145345.5289 11269647.59 0.08359043684 15452873.12 13465504.69 
8147471.232 9286203.754 0.01432015396 10388220.78 13045618.45 17690930.79 8493004.111 15268510.14 5241.116191 12752303.8 12880746.13 16902531.32 15728597.63 16345219.19 12406491.68 8942.106954 11999850.68 8465478.378 11039865.68 8655800.78 15985696.76 8231764.568 12858400.79 9388280.819 13026037.84 2796241.99 9542271.399 15392543.96 15572546.13 10159947.91 16072928.05 16591445.15 10287746.5 16057551.42 9809620.773 10456446.58 9229702.117 12484587.24 12020931.47 14625247.92 14137785.08 14129558.6 12325480.96 8678084.301 17243440.73 13020907.53 14474452.66 16320328.55 21342222.76 12442603.48 
9393.876951 10204965.83 9272973.219 9068042.842 16854791.85 13455381.62 977.8488338 13775524.52 12236105.88 18614216.87 12179320.53 13586467.98 14552316.58 13511462.63 11631006.73 3175.702659 12262521.97 14705291.21 7615034.328 9352366.856 10118892.44 14090819.97 10643273.09 4069461.497 11628203.97 9514157.528 15942578.48 1128454.261 5167.856353 10308870.88 10462526.55 13025050.26 11794653.75 4214311.919 12556987.67 11731734.62 18269721.76 15306261.91 10029859.4 14031454.98 19023443.4 13767062.49 14417088.48 11707656.24 22132652.17 9977780.796 13967590.38 12459107.69 18725158.92 8410872.731 
2776238.04 9595422.894 88823.93333 385896.0265 3468412.434 9006060.822 8331811.54 0.0001367969571 18512879.18 8092572.394 15670934.56 9151728.46 5463976.458 8393842.96 12595103.97 3233163.691 7358443.224 4781868.386 1.476696314 13315556.8 2363621.011 2429039.195 2984991.121 8195812.221 11352379.22 2840564.092 569120.5772 15093529.83 13034425.53 15780841.03 14966351.82 9561934.844 8134267.451 16546228.65 9648127.941 14335682.66 16735548.1 22490949.73 8421955.702 11912516.78 15567266.95 11332357.2 15837530.2 9789797.927 13222527.26 22792848.3 9466214.039 17182621.57 16960249.6 12094726.64 
11917662.89 142158.0877 11423157.46 18656710.37 15560490.27 9817.024849 11012895.8 16744259.78 11755901.63 16470721.21 5569891.985 15972609.77 8128298.373 14622592.75 22254483.06 1166060.733 16222937.66 8654926.743 20785.46879 9947934.571 0.01087804576 16263932.24 14462398.28 6783896.923 12502019.7 16875755.81 11075750.22 36.71972021 10924935.6 8961116.542 15208536.44 19910856.5 10556211.86 16020395.38 13123994.04 13107595.82 8087906.315 11780349.29 17619702.2 15578847.31 8347564.752 15250076.2 3670934.783 16984352.75 1914921.03 14129040.26 18611218.31 12833840.81 13581728.28 13675208.59 
120754.7202 9313910.105 9332941.101 15871609.02 10771176.04 13352277.51 18.44509688 12687106.85 14033153.74 17450375.27 12063580.35 1.214060759e-24 13173619.29 3.23386315 17960438.12 7810404.129 13738014.43 16658756.26 11569988.26 10449119.53 11698859.89 13012148.52 8925623.355 62099.78462 7712122.511 4184715.789 11446433.23 20505067.96 9645692.373 7982356.833 18253999.41 15095687.99 15895762.92 11344774.61 16647992.24 14088215.22 17859679.21 11762119.06 8522960.728 24584974.27 14407904.4 1260168.552 14346796.59 14494849.21 7981.025086 14188694.47 11742398.45 16810650.37 12929167.57 15039239.74 
13815162.02 13950856.49 11281978.3 9917282.814 13077216.05 10412591.51 12553533.49 35.58985295 11968523.66 5314147.451 16043369.84 14472916.88 1953782.515 21206847.07 11698881.98 4989232.063 12227537.19 13804235.21 8504947.513 15636647.63 15238186.82 7544536.76 18365221.14 18190973.82 8785563.329 12789114.6 346142.298 14775715.3 9057770.564 12971929.2 17130443.75 19353785.25 14853782.35 1405085.903 16136813.92 11156070.8 18679703.7 1456.388158 16194484.95 1765020.724 14854959.32 7838933.094 9304277.338 14415717.58 653473.0292 9479411.93 11542558.64 21242248.98 10633757.41 248.9143559 
7546577.6 16010301.8 9355492.613 146030.0466 21068911.91 92518.97011 17482859.7 20398765.18 17401802.01 16852097.87 14325885.72 17413044.46 434.24788 14179612.49 10931951.42 8953964.221 13523735.91 20964433.32 12318968.39 14353884.36 11913365.69 20743610.74 57.03874977 13456976.96 12605749.32 11899224.67 7446203.87 13219372.79 10289317.79 12622172.58 12299179.07 14142117.71 17599929.77 11744615.33 10095096.1 10760273.38 8824397.157 10355779.08 10297950.95 16956775.84 469.6163206 17298780.29 17459257.66 2774065.832 12635999.47 12619130.87 9843147.106 929.1013478 357530.5046 366508.4801 
14074949.03 14891918.23 11563883.97 9878449.795 7101319.677 15796242.02 7762834.037 9071223.109 12162321.71 3907.098647 8183024.645 5219.607093 849.6473238 2283045.929 9946212.624 14624970.83 5395792.986 14405.24191 14299237.4 12597039.75 15505367.06 684694.0225 16196985.57 21433951.64 6853520.86 97719.74211 5047286.146 11246535.23 22283506.57 10418325.15 18703246.24 18113346.9 18187396.14 4.153495334 4451554.691 8884564.666 7323476.164 8274994.132 15405546.63 9045778.7 4211831.337 18724073.77 14202357.26 11791081.5 8931042.582 13812997.76 11198046.81 7292641.992 17932521.33 1388775.622 
19630498.04 16408246.56 6585245.031 7875246.199 12217445.54 510113.1709 14014610.91 12158700.3 15113049.02 9542937.708 281.46753 13391776.11 11107692.59 8654380.704 8947034.254 15538452.47 12838501.86 3.993914314e-11 16081135.04 10329001.03 15016068.02 8244204.626 3479340.18 10278887.38 7641155.106 11490723.06 10805891.29 8240399.938 8458986.912 10129191.77 5884031.909 8414201.764 12719493.57 16048358.6 14946102.06 12419224.16 82845.07818 19102511.06 19025820.86 11530424.11 3088376.555 0.2296683486 12432826.59 8341260.767 10458559.48 4197.003549 20026017.26 20764426.48 6115373.748 10042027.62 
10498366.56 11705933.63 0.002620334477 8339617.555 10926408.17 12210296.87 13942100.6 22005228.74 16257012.51 11683475.32 12878092.08 9518143.199 11420781.65 14744451.19 10649796.6 13525246.55 8690413.387 12374427.37 13757539.69 13855878.5 15975573.46 17166322.48 12401635.54 14820170.13 120495.8087 18211128.92 13642324.57 18386284.44 0.0003029042393 11656817.34 194942.1004 15198950.25 9565954.861 11368437.84 15647382.35 319335.094 12764680.6 10919576.71 13614598.26 6914465.691 26487796.53 612411.0425 269411.5175 20376117.53 14865347.63 9094313.212 10860676.26 11315023.2 16530173.6 13779047.98 
13977513.61 8515399.486 22883121.1 15591376.83 3355562.017 8210506.671 12584858.19 14216301.78 16192722.33 48668.59215 19791224.92 6105007.49 12680365.91 6249094.491 15631732.75 19151019.15 14072786.58 18733522.77 15332501.99 17505595.94 21132046.76 5145067.411 8937825.185 16503439.41 7785616.563 12856091.41 9925430.713 9091291.841 10669157.21 12872385.33 1257400.389 16113115.53 203559.4273 5807600.29 15752094.28 500851.2362 11932692.71 13028560.6 5125317.846 20036491.26 12554535.52 17525919.35 86178.77843 6650772.083 2435589.896 9434893.183 12253738.21 111.8706816 16995137.02 12500564.1 
11169188.3 9361218.753 12746801.5 9018839.79 20607884.84 14627412.02 15082881.39 13487917.7 11228497.58 20321397.29 403730.7174 13867919.34 809018.282 12122767.54 15118503.01 5127339.862 19779573.91 4792002.373 12027079.26 18275314.41 11634342.28 8047475.751 9687641.999 13617380.25 5967245.256 12263959.8 3874122.68 13678070.54 238693.2815 14515783.9 15281609.04 5364513.828 13244491.24 13917503.5 14813418.82 13387451.96 12103566.58 16871213.26 13450718.68 11802962.26 8105088.11 15640740.63 8178116.882 17737154.26 10555310.96 9936067.111 12078259.87 13218596.07 9542270.627 11637541.21 
15780669.74 9312043.546 17871678.95 8183529.69 10073765.69 15852297.88 1078392.29 12435983.45 13828736.83 18198636.01 370751.9025 9333149.625 14285682.23 11367810.17 13018153.39 9111377.343 22677050.96 239153.301 6767891.24 15071357.44 8972773.784 14984483.32 14897793.62 6972206.28 11644020.7 12948549.77 7089038.48 9861828.596 24215109.11 8380811.979 1630982.108 12035167.6 13301194.16 20507041.79 14130874.91 12012773.18 19838612.72 17466073.04 14347998.95 12459684.38 8481122.186 12087540 926497.4897 14696975.71 15791275.91 9370015.77 3878610.773 20673537.94 9687664.352 122697.9939 
13030504.74 8434624.72 9059648.054 1152209.815 8794334.66 13694497.6 9328803.979 5756626.42 14675444.19 8714480.712 19052427.96 15705035.25 14018319.12 19244995.46 11235140.16 11038579.96 17051570.5 12344033.42 9435272.816 10953350.26 18540176.09 326661.4042 11381027.72 16241158.12 38.85111713 8685235.283 12846429.15 15754751.2 14636529.24 1348.678509 9158364.063 11690834.5 3843402.132 13318674.27 4877551.378 1091067.305 16173141.96 13171292.98 3292977.907 6808593.577 10921352.38 3329740.617 11168208.02 158852.8988 19663725.99 15252711.77 10778454.47 12431081.51 10056357.97 8439697.398 
5729040.583 1.668358195e-12 16851414.16 1625008.128 12078859.12 12305042.37 12222712.46 11659128.42 144.9063312 5323419.06 11202696.67 2740820.96 8456083.829 18225412.01 1394152.976 12287664.83 11696472.56 15007798.33 16708992.14 6510057.997 10300019.24 14656913.78 8351260.632 8880190.814 17034421.4 10735845.76 5190358.189 14340025.61 14131340.43 3388176.873 17391312.46 20934682.82 8813929.352 3398493.884 8581150.488 29.16971556 21032398.94 10553089.57 17997600.08 6802599.332 12597598.14 13056414.68 1675289.219 200634.5806 9840921.335 8956539.594 11533382.55 8450155.392 16851232.02 9701779.117 
8324583.219 16276582.22 8966347.388 12100868.05 263584.5424 17850745.31 14311859.66 11041559.93 8130496.285 12.59390395 14654511.57 12443843.38 1221509.449 17115706.02 12220143.41 16698584.51 7792000.994 8879702.879 5419948.181 14261692.15 16454859.72 15422324.44 8430083.831 10991963.15 19384999.43 9701921.805 7822996.074 16129714.93 15418877.08 10732690.4 15750561.6 10969841.71 13191970.9 21369020.95 13597698.71 11117555.55 11691214.53 126428.6292 8460660.237 15283918.11 2048734.618 19320847.27 8136828.61 19966147.96 9254082.671 8069997.95 11200618.78 10282283.3 5451.652841 11317403.08 
1685651.469 17322402.12 7733868.553 10191363.81 12656909.98 7035724.187 7887968.646 16472394.5 8480402.856 3630449.221 11434458.74 14981415 8772039.715 20340967.66 2.592217791e-09 13212449.17 6715279.993 3665974.331 15019.29177 8463271.681 14892839 13151998.36 15437194.92 0.08229944996 1058351.058 17331744.83 12720747.47 9931229.985 76881.24963 5999299.374 15312388.28 10444435.25 20080064.17 11.91227614 16887946.69 9094693.413 17313264.21 10785085.67 8530806.495 7887721.098 16375078.1 13253593.22 597286.1701 15753780.75 12798740.32 15843987.63 3491049.918 10881199.43 11230933.43 2370163.006 
12585669.23 7993843.288 8477430.52 11537592.12 12394375.67 17181784.58 7395392.069 8743239.814 81648.61627 5268819.818 16115471.76 8980241.125 9085716.78 14804090.3 9491628.77 12240704.45 7674749.86 10262221.06 11202794.95 1437709.728 15925039.24 4704784.029 11047475.72 13140315.16 10895445.11 10026735.42 9802089.911 234867.2241 9397316.979 11615558.49 2705430.431 13177103.26 573585.8672 3972.016122 11765655.61 11763424.86 5540551.735 11900308.05 10978599.65 11008420.58 7519444.163 10278881.37 14647599.74 14131907.33 16396691.8 10357636.51 7763579.525 12352168.54 8497419.365 9834871.538 
11971884.08 10114977.63 14964781.68 644695.0475 15190346.53 10932497.82 8061601.154 14147694.42 30131.29816 249201.4928 12118767.37 8462579.164 18642290.19 150508.0881 485051.8372 7660811.131 11151986.12 9236449.148 10065950.97 7620220.045 12561614.61 13539253.65 17223833.26 14381524.87 8278231.584 8164867.117 15633603.33 15912128.92 5884716.848 12537491.59 13573020.82 14843466.01 17470511.67 15129972.31 11117981.33 14071368.61 13621493.1 10600375.75 15049393.64 8721359.507 10498849.62 8287962.137 14987539.76 22094614.82 14929272.25 20281360.36 14696744.33 18518510.08 20077780.77 12677082.94 
7080108.252 9243627.326 8241231.342 134259.5551 9338518.129 2328937.303 15062689.4 15866861.88 18666225.83 11306495.7 22037336.9 3358340.71 7035688.303 17682320.9 12743235.41 14148889.75 4567179.993 8750952.807 8061894.999 0.1280432299 9533366.513 17204547.08 12068591.74 2780792.704 12897608.01 7992703.14 16926096.44 12185429.79 10848474.31 11503146.87 18367077.03 11585578.42 5497150.417 201484.012 6041474.616 6002717.344 14518228.05 14577729.45 12454972.16 4351097.243 1732284.406 13002059.66 11742909.57 7985835.075 727.4348617 13982326.47 102774.9294 15123868.93 14629905.63 1446773.246 
# Events [H51_split_1/H51_split_1_1570818102.x_y] N:
5 11 3 7 7 5 5 5 2 9 6 8 3 10 7 9 2 3 5 6 5 2 6 6 9 8 9 6 14 4 8 5 4 12 6 6 2 3 5 7 3 2 12 12 7 11 6 7 4 2 
6 8 11 9 5 9 9 12 11 10 12 3 6 6 4 9 4 6 4 4 8 12 9 9 7 5 7 12 10 10 5 15 8 9 7 12 12 11 8 5 5 12 5 11 13 9 5 5 10 3 
3 9 8 6 16 14 6 11 11 6 12 9 6 8 13 8 7 8 12 8 5 7 8 12 10 9 7 7 9 3 3 12 12 7 8 8 4 6 5 10 8 9 9 7 9 6 9 9 5 1 
4 9 7 2 3 6 7 6 6 6 5 8 7 8 10 6 9 4 9 8 4 11 9 9 11 10 9 10 8 10 8 12 6 9 8 14 6 4 6 9 10 5 9 9 7 5 8 6 8 6 
7 8 7 12 6 12 6 12 8 10 4 8 8 9 1 8 15 15 8 5 7 11 8 14 11 9 4 12 4 6 12 11 9 6 5 8 7 10 10 14 7 11 9 11 10 7 7 12 13 11 
3 7 5 10 3 5 8 15 6 5 7 13 13 8 7 7 7 8 11 5 7 7 5 6 5 6 6 6 7 8 8 6 14 8 6 8 14 9 11 7 12 12 9 8 7 15 10 14 11 6 
2 8 9 10 13 9 11 8 7 7 3 10 7 7 12 7 7 8 8 9 7 8 11 11 9 10 12 12 7 11 10 11 9 8 8 11 6 6 11 6 3 10 6 17 12 6 8 7 9 5 
7 8 9 7 5 4 8 6 10 5 13 4 6 4 16 9 8 8 9 5 5 8 11 9 8 12 6 13 8 8 10 7 11 5 7 11 9 9 8 6 8 9 5 6 8 13 7 4 7 4 
11 5 6 8 6 14 7 8 4 7 5 13 11 7 4 13 8 6 8 7 6 3 9 11 11 8 5 7 10 10 6 9 6 9 6 10 12 7 9 13 12 11 11 14 8 9 11 9 9 5 
7 7 7 9 12 9 13 8 8 10 9 8 7 10 7 7 10 4 11 8 11 11 7 4 9 11 9 9 13 10 7 8 9 8 13 9 10 14 10 9 16 10 11 7 12 6 15 7 13 8 
7 9 2 16 14 11 8 11 11 17 9 9 6 5 6 7 7 6 8 5 10 2 12 5 7 3 5 4 11 11 9 10 4 14 13 9 5 10 13 9 4 4 11 8 12 8 7 15 10 5 
5 10 10 8 8 11 6 6 11 6 6 5 7 8 8 11 4 5 7 10 9 10 10 4 12 11 6 5 10 12 11 12 9 9 5 7 8 5 8 9 8 4 15 10 13 11 10 14 9 6 
1 10 8 13 12 9 13 7 10 8 5 11 14 9 8 17 3 12 9 8 7 5 2 7 10 9 9 6 11 9 12 12 8 8 3 8 5 8 8 10 12 7 9 14 17 8 13 10 4 5 
4 9 9 11 11 5 5 7 8 2 6 10 10 8 5 9 9 7 12 13 12 8 8 7 11 9 8 11 5 10 16 8 7 9 5 13 5 9 14 10 10 9 6 6 8 11 5 11 4 9 
7 10 4 11 7 7 4 14 10 6 15 11 6 13 8 6 17 3 6 9 8 9 10 9 8 14 12 10 4 3 4 9 9 8 14 13 9 6 9 5 7 14 10 7 7 10 14 12 15 10 
5 7 7 8 7 7 5 7 10 7 8 9 6 5 7 5 7 9 5 5 11 5 6 8 6 5 12 10 12 10 7 4 12 10 9 7 8 9 8 3 5 6 8 5 9 10 10 8 3 5 
4 4 13 9 4 9 5 5 9 11 4 7 5 8 6 6 9 6 6 12 9 10 7 7 7 10 8 10 13 15 5 9 11 18 15 10 16 12 5 7 11 15 7 7 10 7 8 6 10 1 
7 8 9 8 9 7 11 12 9 5 7 6 6 9 7 9 13 9 7 8 5 9 12 12 15 6 8 12 11 7 7 9 9 10 7 8 12 8 10 12 10 11 12 10 8 8 13 7 4 8 
4 10 11 12 8 13 11 12 13 8 6 7 14 10 7 14 7 11 13 11 5 15 7 8 11 10 5 12 10 7 12 9 10 8 8 13 11 2 8 4 10 8 10 6 8 5 11 15 7 8 
2 13 4 7 6 6 9 5 11 16 11 1 10 19 14 8 4 6 9 9 4 3 10 16 8 9 6 8 8 9 10 8 11 12 15 9 13 11 10 10 9 9 8 11 12 13 9 8 9 8 
3 7 6 13 9 3 10 7 10 13 13 9 9 11 8 7 10 14 6 9 7 8 6 7 10 8 9 6 10 11 11 6 9 9 8 10 12 13 11 8 7 7 4 8 6 8 11 12 5 4 
3 6 5 8 4 7 13 10 6 9 6 6 9 9 6 5 7 15 9 8 15 5 8 13 5 7 8 4 8 8 15 9 15 9 8 6 11 10 7 10 12 6 11 11 18 8 11 11 6 7 
10 10 9 10 9 8 9 7 7 8 8 8 10 9 6 8 8 7 10 9 11 8 8 13 13 11 7 9 8 16 9 9 11 5 8 11 8 12 5 9 11 6 10 14 10 14 10 11 5 3 
6 3 10 13 9 6 10 8 8 9 7 8 11 8 14 3 7 9 7 6 12 7 8 15 6 4 10 6 8 10 7 9 5 3 9 4 7 10 7 9 9 7 8 5 6 11 6 13 5 3 
6 9 10 6 8 10 7 8 7 5 5 4 14 13 8 8 7 14 10 7 11 8 11 9 5 12 13 7 14 8 10 9 10 7 6 10 12 8 11 5 10 6 9 4 13 9 7 9 9 7 
5 14 8 11 11 7 13 8 4 7 12 6 10 3 7 5 6 8 6 5 8 6 5 7 6 6 7 10 7 8 19 9 13 10 10 12 7 8 6 10 8 7 7 4 10 13 11 10 6 2 
5 6 10 8 9 14 4 6 10 8 5 9 9 10 8 12 11 7 11 6 3 10 8 6 6 4 9 7 14 11 9 8 10 10 8 4 12 8 7 10 13 7 6 13 9 12 6 9 8 4 
11 8 9 7 7 11 10 10 2 7 11 9 9 7 7 12 12 11 8 5 10 11 11 9 9 3 9 10 11 6 9 8 6 9 9 11 9 4 3 11 7 7 10 8 11 7 5 15 15 7 
6 3 9 8 4 8 4 10 15 6 2 7 13 10 11 10 10 5 10 7 14 4 5 11 13 6 9 15 8 9 13 8 14 9 6 5 17 6 9 7 4 8 5 8 8 10 5 13 5 3 
5 9 11 3 4 11 6 8 8 12 6 8 10 6 9 6 4 3 11 4 6 9 8 7 8 3 6 9 7 10 7 11 5 7 10 8 10 9 8 9 7 5 12 7 8 8 5 4 9 5 
7 10 6 10 12 13 9 9 9 9 8 11 6 11 6 5 10 12 11 7 10 4 10 14 8 11 6 14 15 13 8 14 6 9 7 8 5 6 9 4 8 7 9 5 12 9 11 8 12 5 
5 8 4 6 6 12 8 8 7 16 7 14 8 8 7 9 10 7 5 11 7 8 5 7 10 9 11 7 12 5 9 4 6 8 6 12 6 11 8 6 11 14 8 6 8 7 15 8 10 7 
7 5 5 11 9 14 9 5 10 11 7 10 5 6 14 6 6 10 6 7 8 6 8 6 11 4 6 13 13 8 10 7 10 8 9 9 12 10 9 14 8 6 12 5 8 8 7 10 6 7 
9 10 5 13 6 6 4 10 7 8 11 10 10 9 14 8 13 5 6 10 4 13 9 10 6 11 7 6 13 8 11 14 7 15 6 8 8 7 15 7 14 7 8 9 6 13 5 16 8 6 
6 5 8 7 8 9 5 7 10 7 7 2 11 11 9 8 11 5 5 12 15 11 4 5 6 6 11 10 9 3 8 11 12 7 8 12 12 7 7 11 10 7 6 4 7 9 5 9 13 9 
6 10 11 11 8 9 15 5 6 11 14 4 9 16 8 8 8 9 12 6 4 13 15 13 9 5 9 6 7 6 13 13 7 8 7 11 13 2 14 8 11 6 9 9 5 5 10 9 6 2 
12 7 6 8 9 9 8 10 12 6 11 9 3 7 5 3 8 8 13 5 11 7 4 9 6 7 4 7 5 8 10 10 10 8 6 13 6 10 9 4 6 11 8 7 7 14 10 3 7 3 
3 12 5 8 8 9 8 5 8 7 14 5 6 6 11 11 8 7 7 3 9 13 3 10 14 9 5 6 16 4 13 11 7 5 4 10 9 6 9 4 8 10 9 6 13 11 8 12 10 8 
7 9 4 9 6 9 8 6 10 3 4 9 3 6 7 9 8 3 6 6 12 5 6 9 11 17 11 13 10 8 6 4 5 10 10 10 5 7 12 11 11 4 7 12 8 11 13 11 10 7 
3 7 3 9 7 10 7 9 18 8 8 5 7 11 8 9 5 9 9 10 5 6 9 7 11 9 5 6 8 4 9 10 10 13 9 10 8 5 9 4 14 12 7 17 10 7 8 7 14 10 
5 6 14 7 11 9 11 9 12 7 20 4 9 5 8 8 10 12 7 14 17 7 6 10 13 10 12 4 9 11 6 8 12 4 5 6 6 9 10 9 8 9 6 6 5 5 5 9 11 8 
9 7 8 4 13 11 8 10 5 12 7 11 6 10 16 6 9 6 4 11 7 10 8 11 10 11 9 5 10 8 8 6 14 7 8 12 7 9 7 5 8 11 8 8 4 7 7 10 7 4 
7 7 12 6 5 8 6 10 12 12 5 9 9 12 8 4 11 9 12 10 8 9 10 5 6 14 8 9 17 12 7 9 9 12 9 7 14 18 12 6 10 14 9 9 13 12 6 15 7 5 
8 6 9 13 13 9 9 11 8 10 12 9 5 12 8 9 12 8 14 7 6 5 8 12 5 6 13 9 8 5 8 11 4 3 8 5 7 4 8 10 14 5 9 8 17 8 7 18 7 5 
7 2 9 5 10 14 4 10 7 5 9 12 6 10 10 12 7 7 8 5 11 12 6 10 10 9 7 11 9 4 10 12 6 7 9 12 16 10 7 6 9 6 9 6 14 4 11 11 11 6 
4 14 6 6 7 8 9 8 6 2 7 9 6 6 7 7 5 7 9 8 13 16 6 8 7 7 7 10 10 9 12 3 7 15 8 7 12 13 6 10 8 17 8 7 5 4 10 10 10 10 
4 16 3 6 11 9 17 7 8 10 7 10 9 10 4 7 7 7 9 10 5 5 11 2 7 9 11 10 6 8 12 11 9 7 9 5 7 10 7 6 6 8 10 14 7 10 10 11 7 4 
6 6 9 7 14 8 9 6 5 8 9 9 7 10 7 15 10 14 11 12 9 4 8 12 12 5 6 9 7 14 10 8 6 5 10 10 13 6 8 6 6 7 5 6 11 7 8 13 7 3 
6 9 10 11 11 8 8 8 13 8 9 6 14 6 5 12 10 7 5 7 10 10 12 9 9 15 8 7 10 11 10 10 11 7 10 8 7 3 11 7 4 13 10 13 9 9 11 11 7 3 
8 8 5 11 8 6 11 9 11 9 10 9 13 6 3 9 5 10 4 4 5 8 11 6 11 11 14 10 12 8 10 7 3 10 9 5 9 12 10 8 8 12 11 5 12 8 6 10 6 5 
