# Format: McCode with text headers
# URL: http://www.mccode.org
# Creator: McStas 2.5 - Dec. 12, 2018
# Instrument: ILL_H512_D22.instr
# Ncount: 1000000
# Trace: no
# Gravitation: no
# Seed: 1570825286
# Directory: ILL_H512_D22/0
# Param: lambda=4.5
# Param: dlambda=0.45
# Param: D22_collimation=2
# Param: D22_sample=H2O_liq.qSq
# Date: Fri Oct 11 20:21:43 2019 (1570818103)
# type: array_2d(50, 50)
# Source: ILL_H512_D22 (ILL_H512_D22.instr)
# component: H51_split_2
# position: -0.240102 0.0325 10.6977
# title:  Intensity Position Position Monitor (Square) per bin
# Ncount: 1000000
# filename: H51_split_2_1570818102.x_y
# statistics: X0=0.000509681; dX=0.0115127; Y0=0.00110847; dY=0.0158249;
# signal: Min=5.73784e-28; Max=7.40249e+07; Mean=1.67187e+07;
# values: 4.17969e+10 6.0417e+08 21380
# xvar: x 
# yvar: y 
# xlabel: x [m]
# ylabel: y [m]
# zvar: I
# zlabel: Signal per bin
# xylimits: -0.02 0.02 -0.0275 0.0275
# variables: I I_err N
# Data [H51_split_2/H51_split_2_1570818102.x_y] I:
18693664.11 46756580 8866587.678 9175801.31 303633.6667 18475288.31 18130313.03 8718014.367 12572043.97 7251064.111 7434524.706 13.03866797 10563470.84 14697037.4 9821930.967 33676342.82 26597658.95 318801.9205 20358264.39 29049.02779 8779752.443 16516763.02 15875842.77 46735095.78 5844.9632 14968368.09 11157827.29 9772670.71 18438059.2 11321744.91 14424312.95 38177706.6 4385292.739 12813369.68 712.6063014 23949629.4 183.3451527 26001829.36 7416402.519 9516457.219 22373562.93 27396026.33 5072431.04 8252006.01 17505204.42 22169521.32 11118114.63 8886493.777 21059372.53 43411265.83 
545013.2577 25031988.29 16140588.51 25078774.28 23024671.98 17861.66089 3664827.896 2781752.761 24916244.08 25110911.54 9822008.31 16570066.28 1232972.803 18478036.96 7727127.292 32120724.57 12711820.89 7545155.287 34395561.4 7921131.465 14460343.25 2054.597898 23735804.71 19.86333442 16575918.23 6948816.909 18836261.92 15158779.73 21877234.58 15799450.18 51763027.41 9522078.72 19568881.99 0.0018104299 34683757.31 25369958.62 8570158.641 7242311.791 571819.4686 4646541.667 9790.15026 29624206.56 43465362.37 26596472.87 31613407.27 19926939.47 18760970.86 71119.66274 26796219.96 20835231.81 
523071.3751 101651.1915 29501097.05 9492832.978 7057002.084 29538528.79 9379791.086 11568130.57 34130382.28 26433598.62 2033101.885 39729154.76 13373074.05 5522749.71 250.3898473 7907780.489 9221157.055 15898230.21 24511798.64 46537261.79 24663818.58 36661079.56 28820460.88 25082794.98 1137366.211 24346702.07 28590996.87 10647.79376 10130324.56 10831951.28 14568443.2 2133060.479 36105285.23 52628.66368 3303003.866 3971495.087 23549163.71 29544667.61 8214.908416 8150955.258 25293849.96 1652.677254 7789840.22 11721842.03 17322049.52 11888256.41 26355242.68 16179876.62 17537668.32 27313586.39 
19185178.45 22072645.96 22100046.64 36015900.14 11278725.55 17145448.53 24082657.66 9017074.14 12942991.77 16507549.32 10192358.66 20839036.56 26567974.96 29532468.04 19048186.67 8691260.427 15498954.51 11844547.76 8149332.432 9765298.764 16358334.92 688240.8181 17208563.14 28662798.84 27781914.85 18501702.72 26090890.12 16335358.86 6024453.968 28260234.49 38.05359492 22121962.36 10237447.37 923748.2242 17680156.3 4334092.908 6167507.414 66.40041943 14324682.05 9984539.375 16440678.7 36788769.82 21252998.58 14239531.63 9368394.963 18008523.3 31487773.13 8145758.165 18386168.18 9679743.915 
272.7918675 10230495.45 7360907.727 14562825.88 10733527.36 12249735.44 24037.39882 11726701.26 686976.1775 9192866.898 35147278.19 6892012.491 29368673.92 13768940.44 15975056.87 5967570.238 19933429.15 19626876.37 6626668.97 22903095 19716786.74 8330609.503 53722.70921 9459477.245 23589704.69 11822078.07 3000069.484 34044297.49 41247037.15 8108.879018 10806590.26 4771.776683 8301909.812 18819980.66 15791773.65 21272128.27 24.52889173 29243112.41 11430690.45 14747524.15 11446.05332 35011347.85 11557991.53 7670731.772 21247800.49 9747218.34 31080342.83 12080743.64 0.2501000644 16429636.28 
9888281.179 11177115.49 18700660.98 8120628.818 5.694154422e-05 12515441.91 10704312.02 7607197.257 2845.033704 12619143.24 8532724.396 8287261.702 34431861.22 21013239.62 9.408042404e-18 20512147.89 20329142.31 18393381.07 25225852.41 19788945.39 14636757.52 8253983.083 58.14312892 152215.1224 7525818.202 24524917.41 13785055.79 24092557.5 729063.4978 10012730.37 73701.45169 11935462.15 8982310.565 50647270.59 111202.9823 9767750.451 22300065.3 9366407.828 8433866.249 9970646.577 10240969.44 19573164.47 24256279.41 29001598.4 6807155.014 11815850.45 25887896.05 22533837.97 26850600.67 7721125.274 
8172470.912 22888080.14 4001.703741 1066550.732 24821198.04 10280741.62 16992993.09 16370603.68 9752612.552 20860619.89 2296627.242 30664052.56 17569705 15532902.68 6406366.887 4172896.344 16836173.66 23668093.04 14579871.42 11099619.24 8316592.286 17581049.19 25055182.74 9602931.205 26094784.09 8042953.272 18976888.15 11282466.2 21932835.22 3887731.953 19236762.26 603.1405457 21361185.16 11301804.92 21952350.64 8618211.631 4587599.062 29057816.15 41.6219606 33180255.39 34936536.11 12390641.7 815.1167829 9682479.988 16999456.71 23974954.25 8869791.007 19724679.14 6098165.775 16377991.77 
7211493.516 19301020.4 10303.5529 1.726413478 18350688.26 12969510.8 18842268.26 33189625.93 5226749.823 10880258.95 10472045.54 20715671.5 8467418.64 28181881.44 9072594.666 19607316.18 11237277.95 49110556.42 7170830.664 10915339.56 18671961.64 12007711.84 8539215.115 14840277.47 22194244.4 8628716.635 34309122.25 15064019.28 14303913.39 9142734.014 22952489.04 63076.59875 14462542.6 30541172.51 8387953.282 14001550.72 20435714.88 10618078.9 10071415.69 16390518.11 17522142.45 11892607.87 15242972.93 15155263.74 18223908.05 12641306.08 3311291.802 7242614.539 28011.20992 15530006.19 
661329.8359 30575070.54 9760962.711 24902937.09 4498976.059 26888359.36 10113950.65 10976701.08 5808773.768 35358109.93 111.4274702 7048141.987 1901383.987 11777387.38 27540930.12 12374862.98 11657242.85 4532937.857 18435766.88 9048967.508 19675542.55 29105118.93 17319840.09 19160779.82 21586252.04 42944567.94 16282.97076 24082746.72 16577120.42 9652472.512 35855.48248 8112118.884 19373298.69 8576977.735 17185930.5 30836472.69 34552660.94 14162075.71 5538517.413 8850324.816 40073291.74 27488221.42 34260803.08 23674500.33 26703729.91 27442924.32 10053977.2 28936806.22 7512406.553 18507591.06 
232754.0347 15084858.55 13097015.65 35050317.49 134.2847834 17325246.21 8778386.3 1210499.217 16817727.58 16165859.79 235543.5539 11388488.68 12734640.74 15419326.99 17138295.44 9263513.392 373668.6402 33800090.1 4014.195061 26932916.58 11068580.02 33458989.98 10869594.61 20842677.28 20644263.72 28128715.09 1.608306058 6655507.408 4221.396289 341020.1287 10682297.92 12758701.02 26032537.16 0.00171154125 16608821.31 24038682.65 17710848.41 21371917.32 24989804.16 16943487.05 5887993.823 35350936.72 17217890.31 10129018.36 9062074.713 16798904.94 610303.2959 16314598.94 18409511.12 3783640.649 
25860698.74 12140900.04 25383690.49 104097.809 13770300.37 9466528.892 13079934.52 19492786.87 23338183.27 8373156.955 11258882.02 8491691.689 81253.29148 11036092.84 3706872.829 20195302 13076549.99 8312245.13 10404296.55 1111074.059 31806898.91 10024818.03 21986749.98 19205020.56 10298091.39 674.2237613 25313220.86 12526563.69 35362740.9 5136727.93 8610984.185 11641836.63 21005675.68 28342190.56 0.04317453537 36846527.41 17121673.54 3885542.38 8961473.095 11043430.98 18190944.75 8379576.38 16577213.8 14093493.59 15067854.82 18510487.73 11089051.94 9301893.492 1197382.943 17645792.23 
4459040.505 0.1042815294 16410125.29 28720591.92 7816229.34 7641799.449 7251837.12 36050671.41 25364598.78 14941689.31 19377730.57 4635445.617 74024918.37 7824227.761 12225406.74 19294476.05 32248348.97 15961483.88 32840404.18 115030.1468 45132350.44 7424992.835 20279474.1 8314708.881 8537940.177 9722167.076 33151775.48 21785912.01 14004282.84 22467143.32 19968236.04 21737761.38 22167122.56 8979498.483 30251686.13 10055110.26 1833797.908 1044232.117 1935530.867 17918304.23 20405239.22 14682801.72 8759831.161 28540813.22 21923490.82 38622211.75 17547553.29 38293418.86 8086725.627 10592335.1 
34840468.6 11947572.84 37859874.37 5462475.918 3119.125989 41962008.3 11105572.21 30636228.82 16315224.87 16755350.6 26866001.93 20139992.95 11730500.67 41513052.17 9.572932221e-18 9545198.776 13487333.23 17305567.96 37408514.69 18338473.83 8487707.893 12402212.96 16769596.16 17282964.51 33742060.97 13543109.05 10872330.18 11997956.72 20574336.75 10293593.97 9012983.734 3.865160495 15930004.09 11900579.11 472.2157033 11240454.13 3325229.603 3265602.707 32856109.3 23056812.96 22426837.85 4782061.368 20663937.92 15918870.84 61592.43324 19275969.75 793890.6255 19968320.89 9848288.397 18854525.91 
25053310.06 12485587.44 283308.606 32518023.52 27420744.82 2772911.643 3198643.291 25570389.19 1828.118962 9794363.453 1604136.844 19018985.95 9305356.824 6815625.831 44662.27462 21084311.33 17212523.4 20830458.54 15720491.51 1.199008079 34014641.09 58500121.11 24669358.94 35825380.67 30800176.87 22701174.87 10367132.94 8972044.064 50919.556 35856333.17 30263621.21 18810625.29 11716108.48 21628025.25 26936648.05 8990655.973 8515.978917 31126238.29 17200212.43 17755258.89 48968828.94 11189694.08 428385.6638 125462.2475 18268491.71 19492375.09 26028211.95 19833225.89 38531701.37 9850192.631 
1365653.241 2058.862439 7527799.735 29365743.47 10245332.74 13132184.74 21776590.28 9632366.346 2.260188208e-22 48978769.92 50738167.91 1.719857657e-09 11491172.49 26484261.89 5.187998366 11380629.05 17475035.01 20686197.32 9294911.975 6504346.795 17546173.75 2611613.523 9466420.95 7426242.919 18125256.69 9111779.884 9768545.616 8639173.693 12492158.88 15.13292727 47404796.73 21262943.18 9938667.127 10072251.48 6333847.149 4093633.74 18800813.71 28802554.83 21743828.43 26427999.81 41925799.28 14867712.96 0.6656578677 302801.7667 28445171.94 1471.883034 8906596.513 15862001.91 7604388.777 26151.17206 
9897459.261 9072331.684 3523298.632 7791186.334 30133886.44 26995052.88 80.27039725 16547276.11 20566879.08 23987463.92 9665755.484 2.693558583e-18 11000836.01 57.46542793 16707174.14 17829750.67 20036496.31 11051515.29 9729309.838 19154773.94 9137729.565 14027466.85 9009412.72 18242099.82 1237314.934 18019879.15 7910320.298 27569987.17 10464968.38 9642605.338 34091999.44 16577001.52 32633139.54 14481664.77 20225457.85 50326465.11 18698790.08 17119589.84 11003131.45 4.088122294 9146972.056 618598.692 10740842.59 6604411.206 38484063.54 31846923.17 13727445.16 29884103.25 13799271.89 11243858.53 
21176031.04 8835219.783 8789498.341 19735118.09 21067209.9 11536665.97 11526304.3 7957255.129 28989839.24 18109699.46 6442929.853 31439011.94 10047519.64 19825011.4 15747386.92 9127324.553 33397501.75 6060088.073 35239872.79 4497205.225 29336976.72 21293453.75 14818898.49 22175843.2 1097382.119 8347370.595 10984141.97 8988025.737 20110390.34 8127019.732 19407233.83 25982487.84 23059842 9599123.23 13464256.73 16332383.94 9529476.715 13368292.14 7126531.733 12855176.33 21904728.53 9955541.541 29864244.09 24572050.8 13348057.56 18970374.67 837148.0836 15262820.83 19800174.68 28501.17056 
2470.767529 7776129.111 26647574.33 25435652.52 10911724.89 3710319.922 15036473.89 205743.7171 43038728.6 242868.6473 735708.7478 20533437.96 10325974.38 15302598.07 38393357.63 26752594.6 9005758.107 7975705.69 11535632.5 11183011.53 19307075.47 28272917.58 20521336.9 24030895.04 27462258.78 29482045.17 2263681.494 169.0992918 11804073.63 17938790.87 1971439.505 5958621.648 25585811.84 16187757.35 3.700522317 2113819.695 9979211.754 13191449.46 45995520.46 28762298.48 6843129.371 40707310.89 11509994.9 9645260.616 20662473.03 13521468.49 41326497.73 7555963.587 26282341.01 21941407.79 
8648361.912 25007835.25 20463400.93 23152231.45 19262.13912 15819951.32 12060967.51 39588208.77 759624.0978 10344766.91 8544895.476 43034421.23 21415.03488 11144251.76 11236587.09 16594314.56 11196071.3 42447584.31 3730414.323 19549525.58 14018694.27 453203.6471 15868762.17 9713666.195 78430.64147 6600076.476 486298.8562 9322401.12 8532249.877 4305612.4 7912140.63 19369106.88 8201846.424 67250937.87 8920448.77 6956366.272 23170614.83 23799469.56 15669394.31 14049752.83 19379071.29 22602017.54 34124660.51 27248277.21 27568809.01 10179393.36 33501329.36 7464285.123 11.72688629 26100389.66 
11321802.84 12783509.22 9548748.838 6152639.588 18507452 32541938.17 23690796.44 17802781.96 1259597.66 1162.260547 12679050.25 7294723.223 7881411.012 30470512.56 22539694.65 8681828.133 7155225.683 32127347.75 49121838.21 36258401.11 29693851.05 18174685.87 19755422.51 8502450.508 27979255.89 11325278.64 7028947.847 26367396.73 18074980.01 17129396.62 25122111.66 28803204.65 27368769.06 31087244.65 8912399.601 7829203.558 16009934.81 30976328.31 18320423.17 6986637.245 19002445.42 32593516.06 40062750.84 16217484.75 14334575.66 37717631.47 22419598.93 23035476.12 21262918.77 9504441.387 
7831873.237 15169593.03 10086810.52 10233665.38 483632.0352 10170086.29 17623329.99 18152420.11 9731997.198 19882913.68 32047827.56 15524492.41 6851512.186 1716841.756 42.44113599 9577056.551 364833.7578 211137.2022 1.177316982e-06 14164163.34 8797424.678 11874244.97 20616188.48 21208997.68 7692989.577 32023.09219 37443207.37 17162156.5 10144249.61 3271267.125 364.8857384 18677477.48 32013318.93 14932694.39 45340398.21 10082392.3 37969992.53 10221902.89 20400169.31 7387437.746 8402567.458 26233.15743 11247326.93 102980.4648 15945.25358 9492651.019 23710202.16 45860743.11 17289304.3 18484631.02 
30669766.36 9731231.866 37854335.44 1545.302047 9796571.64 13556496.4 30399363.64 250458.9839 32623077.83 17363222.54 17178562.97 7570673.827 47918463.35 5301560.313 15944599.37 14702506.58 6792982.745 4346.606159 11501457.1 1594833.913 30590029.16 15695849.27 10397774.91 37396297.3 8633615.447 45297647.82 9741550.584 2400158.599 7779905.535 5847557.899 20384063.38 11168558.89 1507175.708 130142.0383 7265528.425 11121539.69 565040.0649 16680.69754 11891570.19 24568671.41 23178461.63 26625197.66 11992845.35 26772982.18 12825877.99 23059335.47 9359704.412 38755227.7 9950873.595 17458041.48 
14836139.72 16262542.03 7355729.454 14371386.47 9298778.579 30324389.41 0.0009078374343 12550188.92 10747575.92 17332.6112 26597984.16 17258654.53 10665372.97 12838084.57 20059548.07 13593571.83 10066658.23 20197392.49 12138892.26 7739853.334 5578694.003 24498128 12244120.79 20614873.73 10750290.55 23446579.38 7972056.636 24176325.05 12757209.91 18821385.97 24910681.62 16979263.52 36547.39024 644558.632 7434689.968 9337156.224 9958815.73 15840286.99 29627278.1 25642228.56 21233756.86 8937617.668 19890415.98 9535306.803 27894991.54 16910516.83 42778451.11 7654641.142 5568585.205 780.9673894 
8694597.308 9944049.045 82066.54079 19663623.48 0.02910415594 18482000.32 40682726.78 28204640.92 0.4497371344 33285319.73 21094362.71 20634465.12 31591917.21 2018304.85 10780052.73 21030870.59 41876626.82 35702290.67 10298420.48 1.228768074e-08 151980.9098 10001293.8 36825969.62 23052455.13 0.0004442445509 21801610.9 9681101.466 14507737.2 8869958.871 8850118.372 36853664.56 14569687.73 27188996.26 33421880.72 16403147.27 15426381.79 17913473.44 11574067.82 15389785.3 11577562.97 7532915.72 47973943.65 20602992.45 18826537.11 9639686.677 3.670225294e-15 23883734.52 34393540.89 19774075.6 29022882.81 
9546158.896 8115611.792 26172775.79 29410303.37 25882296.85 15683031.08 497830.9876 18281085.97 10315042.9 19832966.53 11713620.57 8020115.237 23126562.92 19267.53095 10085022.15 13774212.98 7816369.799 15902603.1 19378013.96 41086960.65 38479.92113 34860897.49 18480052.01 43453361.95 29376475.27 18563120.33 20238671.69 34933.56195 8204106.364 21578751.07 27342702.17 20670509.92 30273934.43 18682072.69 26234936.74 24773795 37295726.8 27745.49661 27426151.24 19630277.03 10645259.14 7767493.566 37370.50154 7900106.451 8915866.139 2687171.626 7300166.227 20811120.31 1140679.674 14348237.72 
8351145.285 10911744.82 12097117.46 19312593.8 7988671.605 29865681.01 19986085.34 1092288.584 31639858 27540044.47 9284741.647 38766449.55 24166212.17 37466926.17 314415.5134 8248225.435 17267584.82 3690856.265 18035861.92 17190799.96 15496506.3 0.2127815713 11766374.16 7524982.572 9642338.895 6263515.555 22204998.86 8686434.789 9805831.066 248.5568079 50518936.59 15837211.96 1236.467293 19993446.69 395.4287837 26459898.59 39158318.31 116326.4973 20575402.67 19589796.26 14764348.75 30080469.21 20684706.88 22130487.16 40053432.41 19788446.63 43307678.39 33407183.42 35840652.03 29525611.31 
36696177 28327453.82 12956408.52 8195563.684 27172422.87 15731565.78 8710954.098 17399732.14 29574772.21 24373379.89 7759987.682 29594783.66 8229235.834 17664114.89 17392499.81 2988606.29 2936391.639 47749706.76 16461953.95 20844071.16 506.7583783 7164882.059 9744971.039 9921020.445 7630589.75 28916015.64 35677571.81 12768884.16 605094.0432 14503561.08 386991.1144 0.2722712984 4288102.238 27325663 16861110.62 31237392.28 28195337.09 3237874.322 18402920.16 84190.24864 21494528.58 37169506.94 21035557.42 8881623.194 19443864.46 8789534.363 20156877.88 27473506.31 39947025.14 15238637 
16715986.27 41556850.91 20894901.37 12257755.19 9800244.455 49.94474673 9006436.544 18278311.2 5547.650877 10993997.51 27215.58875 20235973.33 16437524.36 27808518.31 47426387.22 22692801.58 8402786.657 8558246.691 35281784.61 27643855.05 18106303.55 23872068.9 17711350.74 48594808.54 34046558.82 11763258.57 17549148.13 7636199.425 81375.9922 17500485.71 4410.474243 16457254.91 10272656.32 28436464.72 7422649.132 25704228.52 16929587.61 20074781.59 11856685.85 27985563.3 18848508.55 23256640.1 28716132.65 16417924.07 8154192.913 4592114.251 11173.69882 17819240.23 18657821.52 16423874.11 
10660259.42 30049777.77 9640266.674 21250965.14 23750.77244 5.737844016e-28 17648391.7 22441.23845 7445341.71 10185071.43 7721314.276 7943631.628 19151949.77 16769998.79 9966705.429 8245383.736 8569340.25 8622047.703 16676293.47 7801851.516 23241045.77 8947403.093 18709964.28 16581311.96 30739685.58 8253157.12 9582289.316 507673.1665 31230782.73 21522362.66 6538887.937 13885126.13 18974761.86 9368649.641 20618165.42 8278220.861 6989722.511 8365513.887 19614983.6 10504178.8 24557567.83 37028621.52 9324276.227 13022586.45 371468.6398 26041896.65 12936708 20270465.66 77647.26081 8987106.959 
20132998.15 722.5846568 19287923.64 13329193.08 15971331.35 9163559.641 14356201.64 8173541.955 20632284.5 7636846.569 18124524.01 17646722.88 16925439.21 31001214.96 43023514.73 18281460.32 13719016.74 24934138.64 8651734.503 20427187.88 18156388.46 16379707.91 0.6369375247 831.7056803 18059980.12 7634561.394 59451.5697 36905106.02 8434140.154 15960914.6 4477370.411 25580292.48 4916591.241 14318710.4 27610903.81 35820270.22 6761016.73 25813004.28 16547347.52 25.82770979 18328275.23 433552.6987 158674.3373 52578404.2 7011336.171 11310041.86 25052516.34 10064390.12 17574086.03 7427028.432 
3896713.614 17963.18311 12235491.93 20827346.98 14926622 13273388.2 32441.36442 8069298.239 19057957.6 33823238.04 643.5384064 1556.848629 26918356.81 36788929.57 11996905.98 10397782.59 8004959.827 46081270.23 7941797.078 12363658.02 2317.46438 14588722.24 40885334.69 8925687.494 17656303.62 5309357.68 10136850.07 10125278.47 3397176.211 33370162.13 9357469.006 9988515.092 22225756.91 20146173.45 29599366.66 22118959.86 11362764.87 0.02076267076 21081616.12 7833044.363 30177472.67 8355288.402 17473525.36 8945688.156 19254302.92 43373320.14 9019978.872 7025656.007 23499479 543484.0206 
6504014.975 9186557.986 7778701.581 10289532.01 26161641.52 25260771.44 25032446.4 1247103.429 14555343.08 25693184.1 7663270.119 38519535.29 396195.9092 29882059.28 87288.11399 12395149.71 15131438.07 24012752.97 29797044.15 16864907.63 21469984.51 16928407.02 23151814.07 24496.61721 6375867.655 27319400.76 10012367.66 47473806.64 5533919.911 7501825.098 361311.2236 88475.00674 1.085954296e-07 19442075.82 23098480.53 31479138.47 36933743.21 9475144.646 772800.4207 7932905.974 2012976.706 316875.8262 9858053.399 73314.2198 8571346.641 25378159.67 12215797.22 20301554.01 21275235.01 35734468.19 
31201231.29 20479820.88 1.994674239e-12 19917877.07 14694143.39 16877302.18 12629044.12 17145611.18 45320566.51 39689127.49 17387667.33 27398136.89 14779016.03 17285239.56 21373292.71 29303009.97 4088.160313 39058467.65 52837338.58 15701101.4 23785655.12 9285666.182 40980759.62 2287.258464 20403739.73 15202491.96 9646678.709 14379771.3 26807671.97 5323857.906 20421854.27 19530622.2 38140587.4 19031637.63 26051078.96 8245089.521 45055530.06 60249784.44 19264353.2 8262039.279 45993792.81 39233325.52 12738814.99 31120309.54 1276121.57 2039.576323 38897543.97 16068214.98 46419528.38 40777276.36 
488.1279209 29494435.62 8782252.358 10774737.88 24018374.29 11508448.93 18339643.16 29698499.7 98567.96653 15791873.79 12182788.56 23486687.28 8412413.889 8211232.885 25248952.05 32040237.62 2.326440973e-05 9250810.023 4.984622634 11453489.94 31061340.58 15112385.31 34537153.84 77.31484466 16605056.28 23396593.06 19491824.76 25835886.43 22445030.54 34257803.35 25339495.44 9639211.592 43749268.78 8038431.757 23277522.65 11286033.68 8499348.381 10244292.83 8875320.086 55589980.61 19891012.86 16339697.75 12055549.37 10594166.82 9715781.215 25078878.94 19669011.59 17385234.01 31125010.57 46577507.84 
26416299.77 17418360.01 32723.32626 33625558.95 21561933.51 28680213.11 37303831.16 32225691.29 40628412.94 17593959.1 15761094.59 42259416.12 24874018.21 30554787.6 36790157.25 12149681.41 12403828.01 7980493.35 6284580.015 23885322.43 13716727.57 20319652.18 8676138.341 38506985.67 18707742.35 9947874.185 12092625.83 39762538.81 20953213.69 26.08783048 18241880.21 24948811.54 12057006.02 9351647.109 7765774.211 42880844.08 135350.5851 12843082.84 38957396.91 10478596.43 45965399.78 16448746.21 19779526 17490759.58 4740950.33 12296986.94 39235363.94 22208794.43 16885743.95 20391652.93 
20933589.8 10444694.71 2292.36069 16926256.21 2660.901446 9509329.275 79345.52121 8552559.474 33635788.88 33698811.71 14413059.4 14746441.87 7720795.771 1279666.363 17763916.5 8841145.199 312282.7438 25929180.74 42390440.08 25371583.56 7866813.258 23248973.78 38305962.25 14294905.21 19524140.79 13627713.04 37053784.93 7682713.84 7504310.58 15008222.95 21187238.47 7480249.41 40957969.88 17416933.19 23951513.63 32305110.72 8802484.238 11051188.28 21310982.75 21636521.63 15487214.91 18562667.81 6121382.658 10237235.77 16517486.32 12485201.64 22615908.97 58240.67215 16042738.98 26031912.66 
9609142.15 9349715.412 14462537.03 25540144.83 16422742.87 15014159.65 24601230.35 16157491.38 821334.2452 6922696.832 2.795937624e-10 17073694.81 35093576.26 21169594.02 21723847.43 7636001.561 36285246.47 9752267.148 9378470.368 155366.9829 60031705.08 37389399.36 35765467.3 23667502.4 10442336.34 15251782.09 592815.5543 55688173.43 640134.3408 16403708.57 16166421.9 41359372.34 16846318.22 11164851.19 15836122.85 20617614.92 707.1182054 16738629.46 21674604.84 18771774.76 7899718.487 44290503.96 16089189.61 12063046.35 13499367.36 10369819.04 19722699.07 54855194.83 9530858.973 1347015.074 
9745365.304 6883823.145 20401951.1 27782295.33 19993599.67 8589106.515 11609916.79 19176926.6 27964672.41 39247722.39 19136829.49 19477890.36 49343665.2 7304792.809 29068215.01 8566504.972 9428246.813 15031533 1614086.476 21379243.32 33625678.98 13850215.72 25756301.95 30665958.03 1.039353219e-06 7949561.785 10440611.14 12027654.65 27331687.19 18830620.05 17463756.07 2947170.933 9247099.332 49174906.44 16083371.67 7950506.172 36131989.44 13857.06316 21264592.34 15992644.57 9154576.768 9994933.247 4455.249907 345674.1369 18053569.92 23727596.95 425764.4938 8038947.689 23080531.83 35329313.55 
43054873.33 10145.96459 15211481.76 8628831.785 40803498.37 32815677.33 39994000.91 25070312.25 14534159.77 19340.74423 28717477.34 9375120.508 14933026.55 38583882.53 14793992.11 2876485.563 16098637.88 21771775.03 18820448.67 21504906.82 31413516.99 10501812.86 26582872.48 9503768.308 7815376.527 28849961.19 7519007.777 39320119.9 45605491.84 19754257.27 988305.9677 44880051.54 21473573.79 11310568.01 35938194.83 8990717.362 40300663.17 6692804.841 8425888.756 26126204.28 19775816.69 20976517.34 6549254.225 22769896.91 32114918.54 18972277.82 8175731.602 28486830.3 65873.40659 9327643.762 
7672300.887 29613536.93 30893873.82 14366360.36 22775825.53 8468347.969 17851781.51 12782643.39 38671706.89 6702769.067 67.22770363 4911344.902 19954365.08 9869651.231 19911041.91 9018912.739 531618.869 38440063.73 17691965.65 13890828.57 35134227.67 21738897.65 539387.1198 16269042.47 7665049.811 1925.49411 17757611.87 6896516.301 7847098.605 21257836.14 7942185.746 42682741.95 16028914.94 33260800.64 16500235.66 2.298486473e-08 61436.49922 21672301.31 26276598.59 15171026.32 24853223.48 66154247.9 11300867.37 33429.6911 17653833.24 23216542.7 7875450.387 11186610.54 57720183.54 31999254.87 
8.300112631e-09 23021561.56 36372225.04 17631477.66 35749807.88 18553879.04 9255747.859 11000513.19 1.842714829 13500136.59 28810738.31 23601350.95 21283863.9 24237828.61 13256231.46 0.000742295082 36824851.71 29845788.59 16223686.34 22004873.13 18666773.6 22901863.03 62556810.49 27.10609334 14622777.34 237805.858 8301059.063 11277234.7 30279773.05 20275159.82 6643075.09 14491823.69 18154876.24 24441497.48 13010756.14 22953752.42 27359626.74 15667369.04 11126612.55 29934836.82 50680211.18 14990847.79 16271507.92 5710585.65 14945518.28 15796971 11038170.64 34778483 22359434.32 16445101.49 
10938474.66 13348693.79 8958245.39 19925029.95 29255020.03 19613431.14 8293384.792 20.13183102 13912475.91 4401503.433 16198091.13 29930215.7 39042.8463 7150380.142 13829243.84 791372.2938 7760661.424 7082726.092 8664349.183 29065281.65 31472.99228 12518260.39 26844910 8870197.803 8972877.2 26779368.45 45535.69398 6393680.964 21655925.64 35639721.95 9113022.131 21950589.1 21644338.08 24782299.87 8091502.957 34170388.06 8761412.557 20846880.76 37859871.24 23064311.54 25149325.07 18961273.57 35762910.54 20347448.96 15803979.28 35729019.63 22865300.22 10534057.67 17033332.93 8006292.688 
8300956.038 9315994.452 7342758.129 7634011.404 27330325.02 8677274.896 114.7072738 20303692.38 787394.9555 6051.182817 18883555.73 23202397.8 16976455.28 8996021.095 23642636.35 20953586.94 17604918.37 2871170.335 7252146.14 17634619.57 31171399.85 10850475.67 25267717.26 15880344.97 19724780.35 6126893.859 23700525.14 18201475.56 10016767.28 59365655 22335124.99 16317657.56 11769840.09 16096905.21 19827193.61 29191864.15 16038318.91 43380082.24 24518500.27 16422692.35 18689317.93 11573428.18 32427663.63 11579302.09 10359919.45 18130524.1 16320169.7 31142258.13 20880959.48 20786279.74 
14844774.74 27217458.82 11861900.28 10827439.45 39496921.88 7976826.95 10190902.77 6553791.44 28319769.34 11434455.12 7735351.901 38018412.41 41526471.35 49079156.44 2.197806818 35018879.35 5584871.287 25793694.3 17773107.6 39723284.28 44645613.3 21498548.78 26869323.04 30202195.5 2615075.38 10177287.07 9132166.166 11087621.34 20713077.72 9622656.56 554.812907 10502.46269 30433828.53 2.30362911 11198953.04 8974371.797 22952184.14 10473639 17118000.12 6681685.883 27625529.33 45634323.15 23174.1403 19084569.51 12259234.99 17676362.24 24944395.48 20270450.48 27059545.42 25328359.73 
7865429.499 37290672.21 2572960.464 46976912.55 1097307.139 12985942.38 49653.24547 13620595.73 28660466.63 11033574.09 25331181.11 29744171.81 18243845.08 20678364.53 25573816.88 18113135.88 18519138.06 25961455.79 10007165.22 8304655.357 16450666.65 26067896.94 3477903.15 8913029.396 20281621.06 30079651.48 11456635.1 23579231.32 11721519.16 15495784.56 28310527.3 17518787.26 9216272.49 7830484.709 18525891.84 21951977.57 17452458.24 46735.89195 40562140.63 17415424.41 22460832.34 9709201.302 15520189.01 16484586.3 27694867 23676259.8 18706144.85 21779623.74 42321878.45 9880839.335 
19480433.86 15712665.72 29003947.44 25237794.85 16589156.61 16039081.13 45384471.65 7482042.819 41438566.1 28851096.17 14635798.86 9652231.459 20328514.09 4.850048104 12343178.92 12731177.71 76.56140578 8038944.499 40367991.6 26777065.27 16079202.13 8401473.575 22597926.78 8273246.076 10372184.94 14325678.52 17678721.66 10218544.87 15736004.52 2.711723645e-08 7289178.541 26135905.25 15274467.12 8257728.983 44380299.8 7711819.656 22285906.68 46960474.66 31154819.37 32267582.71 29332756.06 21960114.82 7353368.251 45704700.52 17902787.73 17122943.22 19850924.27 5623738.155 20782128.62 40423103.8 
12361462.29 24744922.83 10349465.12 19887111.14 32091253.69 211550.9786 528.8955504 12112905.95 6.849937341 54926993.31 5812819.105 7059211.789 20436263.07 33940022.76 8642125.797 22386170.03 29523517.01 2.497113192e-06 4447230.16 8550545.004 11913691.21 49143273.29 30056537.7 13748875.8 27490480 17211562.86 23221890.51 23115951.24 32321079.73 9977887.068 41237537.77 27459035.81 10704288.34 16052653.71 30128087.22 41582886.82 17545181.87 10195521.58 16743998.97 16641077.61 18624937.69 14483595.62 42140252.36 31809069.33 18668950.27 26031669.79 8615526.001 8001821.735 487.1624887 492.0186657 
15996074.79 33850886.43 11897470.91 42814.86537 30579734.48 40291671.49 24579203.09 2859.736705 16958375.16 7444439.804 150818.9371 37567392.07 24536482.7 18880708.01 17078464.46 14848497.24 8116719.119 8837566.262 21012974.84 9546466.533 8859211.802 66845344.63 10757647.39 17147147.45 28878529.28 19842624.61 18737691.93 40258091.04 21309217.61 25236686.95 16721.43002 39418748.05 30170341.37 28957985.56 19782135.64 7075864.045 1363152.938 21006651.4 23851817.45 3807071.236 6219300.686 20353722.11 19847816.5 10503277.97 32597776.03 10212390.62 9815854.847 13996333.12 33878101.28 25684781.41 
27777108.6 12319214.18 5258794.027 16236772.17 45802002.76 30522903.29 21830066.92 660081.4612 34877465.85 660650.0645 40269512.75 11965353.28 19112900.61 33569484.14 4344568.538 9008087.824 22819399.49 5485.439884 15800210.01 31428171.66 58920768.55 17536102.88 68698.20862 118.2649658 31422128.24 11096010.34 701149.0143 9884402.968 11234053.95 0.0001081294846 47416435.67 43338689.25 22625101.38 17895759.92 469.5236818 538.3995089 17598176.97 17472232.56 10811196.21 15313514.67 6759264.579 12273587.92 39782030.17 13460878.24 27012360.47 6166665.176 24048900.26 135071.9 31357410.28 7675219.364 
41.13883874 30257303.03 7672638.922 10924418.76 12994499.99 24630565 8076270.975 30194914.73 0.4850103809 8079703.188 33361148.35 1457594.941 737793.9799 30411221.47 9190744.357 25995996.06 0.4067749095 27773942.72 63.50585706 16665.26188 0.006331621146 15369642.72 20449761.94 979702.7528 16046373.54 18936329.52 45732239.76 7964618.355 39808915.04 20631256 7645589.919 15101573.87 8640155.942 19890180.83 20975826.76 42034649.46 12907935.66 48620967.62 28633210.19 838.1366103 31986.1154 307519.2773 17238047.84 9110158.921 19854976.57 4169995.2 7517198.6 22707472.28 38771253.35 8694203.168 
# Errors [H51_split_2/H51_split_2_1570818102.x_y] I_err:
14399931.02 21800651.53 9398418.387 9211542.151 319875.9998 14602262.16 12335747.27 8753777.838 14516667.14 8372732.85 7947840.05 13.61371369 8954256.413 11892410.69 10409182.92 17741661.35 14867544.4 268676.1678 12154668.81 28405.88909 8955187.671 12494666.34 11953097.42 21500696.49 6303.965734 10844221.84 11928219.12 10284489.87 11953144.87 10063521.01 10857772.98 18985438.77 4582624.714 9850965.546 579.7969379 14354326.31 175.2101174 16341902.5 7955531.928 9588958.731 14419135.21 16278408.92 5264552.909 8557649.381 10942808.85 14182789.87 11360610.93 9582236.038 16211820.37 22464409.35 
551160.7978 15380859.36 12265996.52 16596789.51 17196197.41 18322.52719 3395434.502 2873432.296 15260096.53 15068635.86 10500168.45 12811733.52 1300841.961 12606297.56 8111639.252 16673574.82 9500123.26 7598566.087 18168369.82 8676965.764 10744126.3 2122.34075 14965159.33 21.45485185 12353952.99 6311808.209 11908561.63 10852605.88 16625346.34 11693000.09 22732986.12 9755187.229 14032217.56 0.002090497781 18107897.14 16600165.49 9065528.108 8362701.325 617632.6171 4896705.795 10261.65348 16710804.12 20647492.12 14053824.51 15747953.69 14813559.17 14101717.08 74842.5643 14885702.85 16076230.85 
535794.088 111350.749 16167315.2 6790992.591 7533492.335 15454227.12 9769694.463 12323975.98 17795459.77 16376217.35 1880376.712 19260599.7 9423945.174 4886867.344 261.8163049 8528854.475 7877039.028 11727187.38 16110074.95 20355151.61 14739413.52 19165647.66 15737041.18 15220082.65 1099012.841 14723018.18 17952428.41 11195.60012 8538923.891 10465113.58 11574440.32 2172438.855 17250422.15 41195.1245 3468325.081 4245706.048 15026810.96 16668996.94 8873.018252 8583054.401 16296014.17 1756.276521 7993476.091 9015839.452 11158086.24 9029125.26 15118437.1 13482037.33 12146775.6 16354764.97 
14671605.57 15669934.71 13339381.89 19260673.26 8502041.257 13221929.08 14500217.5 9153011.366 9725437.396 12455695.76 11371105.94 15340965.89 16162573.42 17906567.96 14479855.74 9063817.6 12484015.31 8129007.903 7610985.5 10352830.48 11796676.06 535743.4871 12666154.57 17887090.18 16797249.22 12351131.65 13987728.71 12167816.54 6179152.831 16859392.58 40.37676772 12728356.51 7496932.531 997751.7837 9947189.165 4690155.688 6467900.342 74.23792579 10721931.18 9941177.985 12036103.67 19096258 13015288.37 10675295.25 9128680.285 11539528.27 17340135.23 8797289.609 12131330.02 10445153.93 
313.9374786 10195884.83 7867831.266 11462270.8 11592913.19 13095510.85 24527.20998 12435331.62 768062.7158 9392380.505 18441466.72 6770598.109 18173614.32 11002953.03 11894202.05 5745101.311 12000720.12 12614233.79 6632414.494 12724968.08 12356596.69 8835939.142 60063.81331 10015092.08 15134771.93 12082340.32 3050931.203 19176632.19 19012411.36 9363.326603 11224218.41 5090.442965 8966544.292 12545554.63 11903426.1 12884958.06 15.28385234 14914223.02 12045408.6 10310527.23 9536.470566 17959874.51 12345554.07 7722344.297 12697428.45 9885357.413 16188226.55 9611485.32 0.3063087712 12853222.28 
11415170.58 12223631.2 12203299.34 8703249.296 5.809814931e-05 11689646.57 8949815.308 6580112.729 2271.264373 13375414.98 8186504.586 9265222.247 17767697.46 15493534.16 1.151560134e-17 13236455.64 14656363.72 13711846.4 15454109.85 15126085.94 11274666.5 6951957.536 67.13788184 156697.4604 7988362.364 18606652.59 11720317.52 15052176.11 728105.1194 9404481.171 78775.52137 11094577.96 9464028.308 20753843.18 117185.4135 7459585.758 16167063.55 9888413.878 8701529.397 8435781.623 9505488.576 12187984.91 14742287.01 17023944.2 6279047.811 9160581.004 15076595.78 16576817.69 16160792.78 8630919.215 
8949271.147 13820068.18 4139.725046 908583.0047 15709237.45 9878295.851 12039740.9 10944948.48 10338872.43 13195035.74 2567707.308 16998435.09 11880852.89 11812371.29 6802861.042 4203838.642 12482438.75 14753114.91 10859343.63 10599853.4 9298204.941 13577879.03 16481802.57 10358548.86 15799807.5 8472387.21 12789135.03 8284624.254 16351271.73 3682018.287 14741829.32 548.5002198 13405424.95 12047090.49 13230830.81 6491239.687 4720640.645 17596005.72 46.53476657 17487888.57 17038877.13 10465239.67 747.2620453 10457858.76 12544199.87 14766388.22 9347512.728 14794856.2 6527488.93 12195505.15 
7894905.554 13845081.21 10787.2152 1.803379114 13990888.75 7185539.258 10779164.12 16857387.39 5270062.275 8503898.5 11142544.43 13949783.83 9052038.144 17128207.59 10140451.64 14778023.55 12975690.9 20690380.57 8017232.409 11679469.75 14217690.9 11703521.96 6893666.779 9934229.099 12335473.98 9095458.296 17805414.96 9933468.068 10581653.22 9649534.608 16831408 67431.51684 11454340.14 18397567.81 8568336.541 10946346.68 12783775.92 8226418.199 10616203.58 11629436.3 11029802.53 10671250.31 11008523.06 13232638.45 13862771.13 9640248.646 3248275.873 7540237.415 30308.76534 11880255.69 
724360.6322 18416903.11 8252185.057 14984889.34 4742337.161 15739810.49 11051379.27 10957805.4 6209836.608 18250203.04 122.06262 7419215.022 2015091.734 8849057.774 16081650.3 9208808.419 8791054.73 4778131.901 14160585.57 9774001.938 12967855.17 14841027.69 12516942.8 13886637.64 14682874.16 19959467.48 17407.22795 13775705.19 11741629.05 7059969.82 40087.64807 8667919.108 14749572.26 7511842.475 13023894.73 18890679.88 19890921.76 10090359.55 5982282.233 9694949.563 19006879.94 16090868.63 20649858.99 16434940.36 16736249.75 16639585.27 11013578.24 17605779.92 7757208.158 13834535.53 
257351.6933 12076255.31 10722093.13 19425486.78 113.507358 11093571.57 6548997.387 1264324.974 12688829.81 11721044.91 150841.5286 11891208.37 9814631.614 10861215 12751401.24 9715585.373 412742.267 18184998.49 3689.779289 16416812.03 11446865.05 17252401.94 10337821.96 14052939.29 15337742.97 15287782.1 1.286554971 7153630.014 3793.633382 349438.4772 10605994.08 8251455.736 13704197.8 0.002096194282 12418311.73 14748687.8 13161955.48 14383986.6 14621635.31 11559560.52 6026523.146 18238160.84 12750852.29 11324581.23 8149786.912 12424232.89 647077.96 12590637.11 13746165.13 4034196.719 
16224997.43 13113308.04 16846696.19 77814.79308 12085992.88 9918562.922 12710937.67 11898262.83 17582607.76 9164138.428 8685066.685 9172056.597 59481.29608 8374050.991 2775091.646 13929417.79 13907652.59 6517995.111 7959469.967 1163818.094 17967745.01 11575661.63 16525407.7 14763752.25 11065244.6 778.155005 15389986.5 9762815.681 16846443.14 5195036.723 8641681.142 9226184.429 12688159.03 15547984.8 0.03649246099 18081747.36 12813462.26 3917992.449 9504595.662 11638835.26 12981674.99 8958141.954 13736252.82 9910646.305 10812036.39 14557216.2 8978001.597 9913642.652 1293166.263 12832847.38 
2797598.484 0.1165902811 12342701.41 18118776.03 8734381.303 6183656.274 8881650.321 18986621.13 15122643.03 12079954.86 14299627.55 4883360.872 26893758.53 9034637.531 9091655.233 14789092.55 18507003.79 11875855.37 19741213.88 121662.0283 20766787.04 7875282.498 15128718.08 7976621.691 9215014.62 10185996.11 16013091.92 14847482.7 13203385.55 14435698.22 11993244.51 14187549.49 13410748.1 8800358.955 18183692.75 9133767.077 1719555.475 759742.7702 1407874.652 13456319.2 13074517.38 11222778.21 9595914.191 16647977.31 12987788.72 20454153.58 12971508.52 17618697.6 8513226.656 7849861.544 
18635307.02 10619633.26 19583389.42 6107232.901 2318.949877 19834467.41 11779238.13 18756168.56 12043921.06 12423085.98 16378200.36 12307108.76 11766299.87 21610590.81 1.172439964e-17 10123967.76 11879424.96 12819700.93 18261496.68 12863091.64 6440416.666 8278397.964 11952653.09 13100022.02 18523424.5 9409885.556 11909271.92 9679687.313 15174626.14 10614352.72 9601220.591 4.094406116 11759526.53 12336766.22 527.9531947 9624136.97 3717715.094 3462941.579 17610221.01 12703683.6 12894628.75 4621690.65 15757160.85 11321583.25 63242.71744 14055834.31 589541.1329 14851851.94 7117556.496 14106594.46 
15394729.56 12823422.07 295815.2645 17273691.21 16364925.68 2905921.728 3240772.378 15137801.91 1985.422162 10729187.6 1732665.812 14336953.62 9560795.196 7227984.523 46359.69071 15631295.25 12572675.18 15587798.95 13816800.85 1.295076395 17116866.79 24511984.53 14825088.93 18561928.74 16518710.43 12588583.65 10686114.21 7490949.634 56717.21329 18923806.76 15926012.16 12898183.63 13078096.51 15152327.87 16529483.51 9518058.148 9351.449616 18399774 13326020.4 12599187.36 19559031.18 8664580.448 323153.8471 133031.049 14400857.76 14632172.09 15970098.92 13842988.52 19857050.73 10443416.78 
1474552.157 1286.101498 8126053.401 15597554.65 10487668.27 12012308.49 14358624.37 9920970.98 2.260188208e-22 22584194.08 21343502.6 1.220519221e-09 11991247.68 15835886.93 5.800358504 11366438.97 13104196.3 15579264.29 7730942.804 6953431.763 12893263.1 2410067.564 9955132.992 7826414.449 11921857.83 9604653.609 8765650.628 8633434.925 12411493.96 18.53397506 20472254.84 13156551.24 9740320.425 10558229.32 6640912.351 4259079.177 14238137.8 17554890.57 12980520.69 16107377.49 18686520.72 13130955.41 0.5938630448 319084.7917 16228385.07 1518.096089 8693635.779 11026893.22 8021474.803 29046.0561 
11428594.69 9600731.78 2412929.994 8329128.186 17658951.71 14634230.09 58.39286513 12207801.19 15501643.34 14300248.8 9710994.103 2.244936325e-18 8639518.085 61.43195192 10065488.93 13266545.9 13477097.25 9862517.501 8145742.774 11681955.04 8218929.444 10358902.05 9360421.528 13382191.36 1009991.857 13158610.89 8454039.98 16467845.96 8628479.629 9201647.455 19048298.14 11846009.24 19532975.31 11840196.8 14930085.75 22034725.14 13695612.06 12822871.8 11884538.07 3.995171245 8271205.325 651228.8073 11321839.2 6930837.574 19830615.62 16000864.01 9116944.918 18016441.61 10200436.45 10841278.68 
13538370.67 7485480.802 8789381.849 15352310.98 16342919.44 11885061.4 11438148.38 8716345.778 15935657.54 13784880.47 6743870.327 18964421.3 9004788.494 13634236.59 12021678.13 9998419.251 17941574.6 6545616.928 18311290.41 4926441.495 17729557.27 13903293.87 11031707.21 16307187.67 810440.5916 10223399.05 11409572.65 9234218.338 14373099.36 8748086.845 13188725.75 15976073.35 14172667.61 8423006.951 10901358.71 12565522.1 10439016.99 10182137.07 5519774.273 11270738.78 16479387.27 9921010.298 15593554.65 14817100.53 13560599.28 13678830.21 858960.6144 11079252.34 14703353.66 30818.47262 
2504.958804 6817156.889 16233371.74 15400832.63 11785958.42 3869557.699 11325838.55 218108.0504 20329764.28 262327.8476 775304.9252 15153206.84 11038638.83 9598856.221 19506003.43 15405417.22 7988688.596 8401975.247 12332100.64 12501037.32 14248978.57 16842423.48 15602171.48 14356881.07 15158528.86 15265710.96 2260236.342 177.3483993 9882869.047 13104250.69 1938068.946 6052007.804 14749691.52 11861289.64 3.916365552 1551739.418 9878913.254 9120757.279 20585527.7 17508969.35 7901083.614 19300708.88 12604319.47 7668784.834 15484814.28 12213820.07 20138950.98 8014032.558 14767122.87 17002537.16 
9473776.243 14340220.61 14887601.97 14848240.88 20440.10633 11320381.39 13212082.43 20060619.62 849285.5421 11173103.94 9129186.111 22321017.54 20529.10866 7718487.895 11255510.88 10970316.94 10197649 19896994.71 4029276.752 14431158.96 12787199.85 496455.542 11496471.96 8755029.099 83158.86844 5706424.944 519857.6097 9381318.93 9215077.85 2970577.531 8118101.785 14426921.77 8480774.783 24408735.79 9447892.188 7620317.019 14007436.45 14455716.74 11881930.18 11308209.85 12334498.9 15065822.79 18287308.48 16706769.73 14281578.96 10530846.04 20032008.17 6678562.436 12.41371173 15905898.18 
11565736.47 9775654.648 9968186.387 5857494.89 12710135.4 17512356.29 16166825.64 11161298.36 1346182.557 1116.705147 9405559.691 7735899.9 8201827.537 16664398.66 15045335.61 7619383.744 6233418.198 19132458.82 21132579.72 18786815.93 18022015.19 12915709.78 14777208.39 8888781.246 17140184.01 8782102.405 7514232.545 15898990.53 13652183 12971151.86 15154701.5 17143693.84 14532645.26 16075464.28 9394287.435 8303904.764 12281922.37 16548534.39 13599658.58 7646951.069 12481256.97 19483205.28 18590041.25 12710799.98 10620672.4 19621027.78 16073110.15 14403852.44 14198798.73 10974783.59 
8306956 10654812.84 10894970.06 10806269.16 525845.2449 9289054.886 12395711.91 13408592.56 10403913.22 12776199.85 19508488.33 11305950.32 7178796.577 1792803.432 45.7621755 8916383.642 420519.7379 230584.0487 1.183834255e-06 10713127.52 9176345.347 10382592.01 15318093.65 13693115.32 8883099.207 34588.8701 18152779.33 12703421.98 10278054.68 2532422.555 299.2721498 13424262.63 16472635.77 11254178.5 21861743.61 10323859.12 20386769.32 10470250.33 14379451.08 7332261.313 5521801.303 30291.44086 11926369.12 106883.0488 16616.83988 9226195.426 13256571.39 21322751.58 12414904.59 13448202.2 
18501935.62 10510931.73 19792718.3 1650.914909 8696334.494 11621519.56 16205824.87 192682.3213 18856895.92 13134394.82 11668277.64 8020716.974 20134720.81 5190733.12 11262528 11038445.21 6427957.763 4346.606159 9692379.669 1636443.188 18544891.03 11584120.89 8844685.888 20080274.54 8220221.91 21665222.95 9879320.831 2627146.134 8698175.29 6405214.532 12933202.77 9640334.918 1538334.908 135535.5904 7500914.766 9211243.623 418614.7498 17258.33761 12689356.33 14732396.35 13667508.77 16223360.93 7482235.192 16244556.79 12456134.03 15633862.99 9692868.604 20037067.41 10735101.86 12909292.27 
11301644.33 12216508.22 7714246.431 10613481.96 10043550.61 17419986.62 0.0009944860826 9883766.675 9060453.114 12939.49302 16169086.3 13239592.96 10959358.16 13709204.58 15268567.54 10099435.32 8679387.31 15426124.3 9553814.028 8208978.754 5095775.259 13764910.61 13079596.33 13043882.95 8396933.778 14148398.56 6377154.669 15627855.01 12197827.94 11749037.97 15565996.3 12512884.83 40014.30758 701825.7382 8312236.07 7866324.773 10562918.72 11927916.82 15776723.01 15490278.78 14115239.39 9604210.507 13040599.75 10181490.85 14365422.69 10517646.28 22328431 7993791.714 5871703.473 780.9673894 
9720855.072 8523970.283 66292.35196 14563281.07 0.02311039584 10761281.17 21257943.21 17072121.33 0.5193117103 17861174.36 12145008.64 15389558.9 16377653.7 2018304.85 11801013.15 12895229.43 21939676.58 18567839.11 10954105.16 9.672729662e-09 134452.7247 10385272.45 19168643.88 13843572.61 0.00051296841 15930223.35 10066197.11 11018264.68 9230579.46 9426296.459 19419719.91 11465599.37 16502029.24 16693450.49 12648811.83 11628801.28 10278323.5 12357615.15 12777016.15 12505197.25 7587864.407 21627455.1 15106207.82 12515499.16 9249303.968 3.982029448e-15 14451474.29 18107248.58 14925529.93 17865418.33 
10205215.3 6694042.244 15909356.95 17916352.26 15703350.75 11553106.6 521181.7523 14432338.55 10933818.45 12488453.16 9625862.503 7878673.211 15011670.94 19705.51889 10565391.28 13271388.35 8197757.136 11643727.13 14720937.64 19350484.21 41082.24881 18108292.57 14543719.85 20413448.27 17749281.99 13696882.88 15364824.42 40336.05062 8698247.743 15896327.99 17298974.72 15670119.94 18424429.89 13489832.03 15254579.21 18392981.45 19685777.27 27914.11867 16846405.02 12911946.59 11661260.21 7031758.567 28118.84071 8156438 8475233.871 2130511.075 7548990.746 16013209.58 941359.7374 11519728.74 
8896589.983 11755176.52 12932351.42 14817298.69 8484587.729 17984143.19 14788455.4 1337774.841 19063803.55 16805156.19 9834488.402 18662316.98 14596125 18810524.92 316780.8047 9524230.35 11624390.12 3684492.447 11630028.75 13159417.23 11518170.23 0.2139738368 12578745.98 7892266.527 8361675.245 6606514.644 16518018.51 8494680.132 8583182.057 231.6692504 21393329.8 11539638.04 951.1733456 12186696.24 419.4155617 15854953.07 20219748.85 121464.993 14654720.41 13005992.2 9360078.987 18078903.61 15497922.45 15174326.18 18808149.62 12921247.28 22388268.76 19639773.5 18551672.39 15840055.96 
19073198.08 17419686.79 9912102.199 8977745.858 16540089.53 9679216.714 9000227.465 12932510.33 17204837.41 14675462.59 8675929.98 17819240.1 8247804.492 13037395.38 12029202.52 2533613.212 2604767.456 20608406.53 14080912.13 15264281.14 385.8871223 7433960.098 10176603.84 10145733.63 8077922.768 17472343.3 18592343.96 13419324.12 653557.4713 10693600.95 413192.2048 0.2982530471 4697038.122 16524822.22 11307826.29 18851065.61 17244576.7 2930211.667 12375188.33 82309.49803 13978614.82 18371818.3 14977551.95 7818887.01 14542820.43 9319773.437 14876408.4 14812675.74 20667716.82 11299799.16 
12677918.86 21616967.61 15743673.24 9897423.136 9413019.528 48.05594536 7892291.657 13665826.74 5705.463857 10541108.51 25029.54313 14122441.6 13375397.11 16795502.56 21801303.52 16659526.65 8812626.817 7968752.004 18182518.03 16100440.76 12007755.12 14256614.5 13441357.75 20469581.92 16491881.39 11805617.59 13568767.74 8163145.703 87840.86061 13030799.93 4714.519442 11308757.44 11251185.64 16620053.11 4862772.016 15542782.18 13123932.97 15114811.9 11793442.82 16902965.13 14018294.7 14096833.69 17721542.96 12142018.46 8717189.575 3413901.311 10737.41889 13504056.48 13188756.16 12364046.39 
11459158.48 18048213.06 9002843.381 13938971.18 21449.15179 7.027246996e-28 13071591.73 16757.08902 8586896.118 10802897.94 7865913.552 7760734.078 14179359.04 12474892.25 10652355.16 8568597.503 9580751.352 9955883.125 12643215.57 7391577.832 17092685.88 9408912.135 14256808.67 12247247.78 17143775.88 8698601.232 8316963.728 315637.6027 16236448.51 15174408.5 6935537.708 13368050.29 14317617.82 9082566.982 15255221.06 8773328.008 7193634.413 9154125.187 13239186.62 11139342.1 15373088.13 16235866.87 9264275.603 9437732.707 330105.7441 15841670.32 9927143.371 13734475.82 57976.42868 10037872.43 
15314665.51 690.4470397 14054274.98 11609619.1 12049784.98 9646711.423 10595870.26 8473323.928 12489137.07 7789200.962 13800761.9 12958529.76 12304643.32 18880363.93 21338832.75 14034539.48 10071915.93 14788690.02 8489975.927 15220998.32 13922515.89 12089327.99 0.7121177502 898.2004168 14031950.89 8815567.951 62781.06115 19321092.58 8940272.591 12047194.12 4132822.923 14187520.62 4957952.316 13654865.62 15536403.34 17881676.23 7227457.131 13095698.29 12477203.24 22.93355823 11487497.01 364914.5636 109912.7257 22256590.19 7347073.116 11257636.77 14980464.72 8368621.015 11777964.88 7877531.912 
4356305.54 14363.12872 11110924.37 14223894.19 12562615.66 9534497.876 35537.73417 8558783.254 14515514.85 20556365.58 504.9580852 1628.432372 16425660.44 19102547.01 13850100.68 10960189.54 8304915.144 21815141.37 7873176.608 12758080.78 2026.793885 10910808 19163792.16 9346754.603 12925759.11 3812311.63 11104187.5 10748384.09 3922720.965 17738391.59 7067230.538 8580603.561 12819090.14 13092564.88 16744962.77 13623494.34 12272069.33 0.0215827248 15829343.58 8193393.08 18419125.3 8860390.905 13022747.69 10328826.45 14339937.82 21267449.55 9642339.243 7491772.553 17093632.41 431958.8791 
7448531.306 10054216.49 8062275.752 11271617.58 16039235.91 15285762.51 15073904.9 1394304.022 9585573.932 15648038.41 7393376.144 19214912.46 410428.0866 18053975.05 94267.88635 12802105.35 12621836.55 16087816.72 15371852.76 11807560.24 15241419.35 13114247.87 12397080.85 26431.59738 7128436.746 16348894.57 9292030.256 22260231.27 4288294.447 7851557.6 380854.2218 92247.90322 1.148617848e-07 13820540.53 17401181.4 16306424.95 19789876.54 9596675.783 826158.4008 8480633.195 2240336.559 294290.5587 11021638.76 77273.32597 9579199.162 15408180.8 9032052.052 15383497.86 12933004.11 17899416.99 
18760181.93 15434462.49 1.994674239e-12 15335214.3 10839293.1 12654215.13 12597640.37 12591003.38 21966395.45 19190314.32 12415111.39 16801817.84 11552256.23 13331856.81 13878592.67 17720097.66 4309.297955 20484311.96 23040157.32 11712104.99 14232679.71 9928507.853 18836286.59 2398.864449 15162622.26 11390739.72 8630155.075 10479548.12 16565984.1 5668745.024 14899238.38 13583745.21 20082619.94 14206809.62 14508499.64 8905713.87 20242748.94 25328159.51 14168281.65 8126493.431 21320225.84 19423520.16 9484647.967 18764551.64 1340241.573 2139.041237 20655900.12 11372362.13 21638672.33 19045351.65 
515.6588673 15837688.1 9086224.769 9050660.561 13743808.5 12363928.65 13593982.63 17855535.06 106335.7483 11839154.26 9607108.947 15799824.02 8728938.088 7937724.618 15069045.29 16690774.92 2.684580743e-05 7029886.476 5.12393071 9124041.805 18523798.66 11528589.94 18063651.12 81.08775842 12485210.59 16040665.53 13955759.88 15534605.94 16957053.35 17753386.74 15409287.92 10290821.93 20054382.31 8307026.715 13958092.92 9603772.778 9310569.665 10686867.89 9075941.41 22923489.61 15043111.73 11925621.9 13906494.37 11070986.1 9997202.757 15088087.15 14060986.96 12931690.35 18289075.71 19600841.56 
16937231.77 12986370.4 22919.37459 17430752.95 16399603.62 17302510.21 19215054.43 18201641.78 18330574.42 12417711.25 11855893.87 19416031.66 15279170.96 16283486.99 20551148.81 8941247.569 12910312.73 8464388.694 6464196.827 15085827.02 11535309.46 15309505.85 8992878.065 19019991.24 11613283.88 10634706.68 13041194.87 19934588.94 15674213.36 30.12361837 13627784.62 14904328.25 12051685.75 8299776.221 8156135.088 19831271.34 95659.91993 10029788.93 20813528.16 11715426.55 21640469.46 11469973.04 15022309.59 12915615.72 3884373.501 13469710.8 20324840.83 15236039.08 12657746.89 15222104.76 
15255794.23 11062462.89 2430.340087 12506704.22 2739.290469 10486461.09 97178.02016 9313506.871 17614687.71 17428612.62 10727131.4 11286850.94 8023588.479 1367944.288 13556855.84 9296401.729 332803.1337 18130164.86 19732106.31 15978117.25 8409940.433 13986961.45 18289359.05 10635973.28 12239217.24 9766373.029 16778251.05 8141928.324 8006013.691 11802147.74 16183247.74 7990090.429 19419813.48 12833524.16 15379567.43 17436245.75 9146021.686 8896663.978 13815671.96 15771041.01 9867612.693 12930297.68 5112785.667 7329561.988 12114299.89 10318941.55 13210920.12 38809.70069 10891566.91 14795641.21 
10517219.35 9780030.476 10676737.04 15363036.78 12372025.77 11512160.74 14810151.8 12060576.95 871156.4637 7372193.55 3.05723109e-10 12937637.44 17582067.43 15287862.14 13103867.25 7844344.201 18105400.43 11188713.77 7929264.35 126020.3785 25274257.44 18522397.46 19302358.97 14291544.77 11074326.81 11287973.53 562045.3164 22727368.92 721359.7777 11690808.19 12574272 21574320.03 12471659.32 8807443.972 11586967.11 13852974.82 724.6143181 12478636.36 13490757 13551232.9 8186851.26 18829660.76 11923411.52 9789824.539 10150819.48 10930662.06 12558312.38 23151295.91 8548951.78 1404855.762 
10590073.01 6462857.764 15110227.66 17478128.34 14249437.26 9045360.61 9018708.51 14050267.78 14617052.87 19698902.31 12245783.68 13421067.34 20356371.05 7211929.644 16562915.85 9247979.716 10181829.81 11314850.79 1150575.67 14000662.63 17833649.58 10617960.9 15562076.61 15849721.64 1.138554394e-06 8498436.456 10664456.71 9945868.377 16678607.89 13834131.16 12990195.92 2367536.064 7686244.644 22779083.47 11777763 8471339.172 18846217.26 15442.79255 12560085.6 11595463.52 9878054.387 9462311.535 4787.069956 361158.6262 13504352.37 14698705.83 425299.8118 8589201.539 13991127.33 20258883.5 
21937952.57 12426.21132 10851971.74 9452405.34 18845273.38 16826007.54 20173468.64 15047205.76 10379444.82 13620.39007 15219268.31 9645033.852 13032121.79 19886691.58 10917506.63 3045301.533 12508275.24 13309989.98 13957384.69 13452266.97 18923258.03 10922426.97 16197545.54 10625527.81 7887815.725 15333481.88 8236660.339 18107086.22 21095286.62 12790670.56 1048256.773 21411899.82 12928448.16 9164663.261 18694957.14 9710963.732 19810541.19 7478959.227 9420331.661 14776513.44 13468467.1 15640536.58 6463736.528 17022224.25 17098255.32 12128879.04 8638887.493 14887363.67 60643.9738 9987041.549 
8577792.518 17294270.53 18251993.08 9560102.474 13478519.09 9271313.106 13461860.89 10892312.44 20077001.71 5140986.622 75.16285765 5250195.136 14850772.92 10811661.23 12418821.94 9879720.566 579532.1562 19602876.43 10988162.04 12444488.73 18234913.55 13113054.14 562467.1805 12022865.91 7685513.163 1989.781057 13557626.77 7204156.488 8388157.784 15002297.38 7903739.301 22031662.9 11625829.89 17637048.9 12523269.39 2.622031645e-08 58471.67207 14097823.25 15352127.55 11291126 14745600.21 25718453.18 11349523.21 31675.51215 12953923.42 13987355.9 7825513.192 11732616.09 22816965.28 19193950.58 
9.584139399e-09 13783318.37 19243449.41 13064365.96 16622641.08 13982480.04 10687617.04 12013564.66 1.891950228 11607361.6 17856543.03 13840843.2 12879752.23 14508504.45 10897856.55 0.0009091220948 18686432.6 18126998.17 12050067.47 13508066.31 11911198.71 15546265.18 24417262.6 29.59483816 11477572.76 239903.826 8299597.425 11953306.52 18358126.83 15251883.98 5309116.995 11168849.59 13414131.43 14730637.7 12498345.56 15837998.36 14562814.63 10242822.81 9346967.516 14714274.23 21047243.42 10751948.19 12256387.27 6594016.324 11189823.97 12547136.75 9667032.149 20623094.23 14915692.07 12291753.38 
11814679.48 13170668.76 9331597.748 14166262.34 18159024.9 14770057.88 8957879.377 15.55401878 10010520.97 5260498.071 13252400.47 17996420.33 41734.79837 7335765.735 13211597.48 819681.4908 8029755.413 7440891.919 8882625.043 17614330.3 28526.66993 12059761.2 16069717.45 9408265.514 9590409.621 15474065.62 35522.5162 6704891.351 12343907.84 17953269.17 9982687.974 13693779.64 16201253.8 15082515.42 7589776.053 20282977.3 9059154.848 15708977.71 20307791.73 16582811.62 13324297.19 12913804.27 18787605.49 15200017.2 11773700.9 18001455.18 13354383.22 10861650.17 12991912.82 8767150.58 
8965490.353 10204609.1 8034453.679 7249210.132 16887768 9505478.396 127.4368879 15195563.52 479730.9185 4603.210295 14566086.73 17186083.03 13278895.91 8503752.99 14273096.32 13403726.48 12303670.95 3011192.451 7833203.395 12941693.22 18735237.6 9241450.417 15340784.89 12229170.81 11830051.26 6388516.279 15523887.74 13521484.88 10082038.91 23149211.9 14030341.82 12151685.52 9724741.686 12013025.15 13878025.46 17690987.87 10647030.21 19865220.3 14732609.38 12132326.63 11898401.1 12678024.85 18411987.04 9253148.723 11065951.38 13374836.64 12061153.68 16655007.27 15533017.28 15467915.19 
11600649.03 16472074.4 11336278.33 10571019.22 20537683.36 7582942.632 11006963.76 5539622.452 17415751.54 12301765.07 8318631.351 19403452.19 19092663.94 22757938.47 1.646106181 18123293.01 4332253.797 15676916.89 13392475.52 19362060.88 20683199.49 16173852.45 14815398.91 16012315.29 2740517.825 10643766.33 9234389.415 8048612.156 15199043.99 10285954.26 462.8248827 10664.60808 18252533.65 1.642546401 9956302.062 9412365.947 12185034.35 11709884.35 12999139.89 6761742.972 15839614.01 21012034.79 24774.19595 12082049.45 9098669.34 13049403.85 14613698.1 15162498.79 16684304.9 15263820.37 
9633144.441 19156929.22 2970998.833 21733765.53 1187153.416 12985942.38 52076.22055 12306360.14 17382508.16 11917621.43 15255069.85 18221177.29 11245888.28 15009588.76 16122439.52 13365218.36 13319611.62 15769244.09 10961681.84 8957774.201 12316002.18 15843668.6 3718032.561 7237650.214 12750971 15710801.74 12374580.08 14978307.74 12261685 11835330.13 15551828.17 12930500.68 9395588.377 8304712.884 13608558.72 16653952.48 13829727.01 52252.26576 20430778.81 13108249.7 16560662.87 11211219.97 10080346.31 11709662.42 17159335.18 14186019.97 14105716.71 13781820.63 20378372.89 9215143.557 
15061827.9 11607090.07 18252144.59 15368133.71 11762999.6 12044938.74 20995678.99 7932179.333 21714744.46 15859912.08 11823896.64 10425239.01 15125110.33 5.168948366 12131863.77 11646514.93 80.70280686 8679760.25 19838700.86 16058019.41 13131286.19 6482436.972 13110013.35 8669479.448 10552563.84 10592217.79 13238104.33 10717286.95 12027697.96 3.031452093e-08 7868811.691 14591567.72 11733893.88 8660778.835 19850585.02 8128967.631 13434335.13 22044789.51 18183950.45 16455505.63 18136353.37 15110870.65 7473678.79 20557264.91 11788893.08 11370724.67 14247168.01 6887644.463 15391592.56 21238583.25 
13820440.99 14977590.68 11142047.26 12233632.3 17047823.5 231742.1575 570.9560075 11529131.9 7.167909102 22008109.4 5687929.551 7477165.398 11838188.58 17704141.27 9662177.911 16458831.07 17334800.26 1.917347789e-06 4656386.347 8962275.911 13049444.56 20758663.03 17402825.8 9897747.65 14540593.17 12312901.36 16817156.12 14999854.9 16806429.33 10381477.04 21523277.05 16807326.22 11443213.1 11801288.66 15868691.92 21292206.26 11044966.01 8672918.298 12592707.78 12483726.85 14062738.94 12976530.8 18020771.03 16280184.26 14260879.35 14931244.39 9305815.819 8605168.213 495.4384632 355.8499344 
12222385.12 19167536.91 12641687.11 45411.49137 15641848.62 20197589.64 18128179.95 2763.519859 12596187.4 8040913.976 162903.0561 19607783.56 14374712.3 12998990.99 12550493.09 11300529.83 8530355.372 7278505.458 15583259.28 10125553.74 9273718.387 26344909.7 11339260.24 10490727.92 14978969.49 12806588.42 13947016.38 19343739.45 13026986.97 15348077.35 11328.51525 18430846.33 16591484.27 18183195.85 12369415.87 7911056.502 1279748.146 14412631.7 14352054.24 4170429.021 4691453.225 14153971.33 13062611.19 8439380.546 17414378.54 8310684.225 10250278.22 10469152.33 18142951.21 15512367.18 
17209819.64 9049515.614 5577472.841 12183187.67 19848803.85 18595057.16 15509007.95 549846.0964 19109142.09 695894.4537 18805264.27 10081084.84 15035114.89 16260176.03 4557444.972 9729835.938 13670341.67 5781.784469 11861610.12 17121809.6 23052161.3 13330160.38 49139.50511 90.58798882 16765496.37 8599955.794 727933.9707 8274692.39 10502408.19 0.0001208903367 21902473.11 18389517.85 16044559.11 11839926.88 501.9419204 581.5331117 13097576.74 11439544.97 11556965.77 11430832.79 7225543.864 12081952.65 17723284.95 10010411.04 16267888.02 6660751.676 14300687.14 133529.0823 16138908.66 8370620.07 
25.33936415 15878913.45 6950340.268 12213871.27 9841038.698 14900814.27 8387051.092 18358733.55 0.5234770305 8848520.568 17531826.38 1629431.487 758244.668 17252845.51 9927098.024 15081638.04 0.4981954842 16926166.43 73.3298338 18627.26849 0.007754620017 11668768.3 15821049.56 924355.8848 12007037.56 14336644.81 22075838.79 8724802.27 20704880.44 15068734.96 8364339.121 12399807.06 9464816.619 14975328.77 15925485.19 19382867.85 10078967.07 22007508.08 15972529.04 852.0144519 34545.61648 343763.1789 12188829.13 9978235.478 15175288.87 4500506.147 8404483.535 17073474.57 18331770.01 9321749.099 
# Events [H51_split_2/H51_split_2_1570818102.x_y] N:
5 9 8 10 9 8 10 6 3 3 7 6 9 4 8 9 11 13 11 7 10 9 6 13 5 9 7 8 11 8 6 14 10 12 7 10 6 10 6 14 6 14 12 4 15 14 3 6 4 11 
5 7 5 10 7 9 14 10 13 16 7 7 7 9 8 12 9 8 12 5 13 9 9 6 8 12 12 9 5 11 16 8 6 3 7 10 7 3 6 7 10 11 9 8 12 9 8 7 7 4 
8 5 14 8 7 9 6 7 15 5 5 17 8 9 7 6 9 9 5 17 7 11 8 8 11 10 10 6 10 7 7 8 8 5 9 7 9 16 6 8 10 7 5 7 8 6 10 6 11 9 
8 9 8 12 7 5 8 6 10 4 4 8 6 11 5 8 3 6 9 8 11 8 11 9 7 11 13 8 11 9 5 9 9 6 6 5 10 4 7 12 11 12 9 10 5 9 11 6 7 6 
3 10 7 8 6 7 5 8 4 10 6 9 10 11 10 6 9 8 11 11 8 8 4 8 9 9 4 11 19 3 10 7 6 12 10 8 4 11 9 10 7 11 7 10 12 10 8 12 2 7 
3 5 10 6 3 10 6 6 10 8 7 4 11 10 2 8 7 7 7 5 4 12 3 8 6 5 9 10 8 5 7 9 9 15 9 10 13 8 10 8 7 5 8 10 12 10 8 8 9 4 
5 5 8 6 11 10 12 6 8 6 4 11 9 9 7 7 9 11 8 7 4 13 9 5 11 9 13 13 7 10 9 9 11 7 11 9 9 5 4 6 17 12 10 6 10 12 9 8 6 9 
5 10 6 7 7 9 13 13 15 8 5 7 7 10 4 8 3 13 4 5 4 6 12 9 13 9 14 9 9 7 11 7 5 13 7 3 11 10 9 6 8 7 9 6 5 7 11 7 4 4 
5 9 6 12 9 15 5 10 7 14 5 9 8 11 9 12 9 9 10 6 13 13 13 11 11 7 7 9 11 11 4 7 9 14 10 9 9 10 6 5 18 8 9 11 9 8 5 7 9 8 
4 6 6 8 9 3 10 11 6 14 8 11 8 14 8 10 4 12 15 13 12 5 12 13 10 13 5 6 7 11 7 7 10 2 7 7 9 7 4 10 8 14 6 4 8 9 8 7 8 7 
5 6 9 9 6 8 6 8 6 5 11 6 8 7 7 7 5 9 7 10 11 3 9 5 6 3 7 7 15 8 9 6 10 10 3 16 12 5 8 9 8 7 6 7 4 10 14 5 6 9 
7 4 8 7 4 11 2 15 15 12 10 8 11 3 6 4 7 8 10 6 8 8 9 7 6 10 14 9 11 11 11 5 9 8 10 7 9 14 9 8 7 5 5 13 10 9 11 14 9 7 
6 14 11 4 8 13 8 8 10 9 12 9 9 12 2 8 8 8 14 5 11 11 11 6 6 11 5 9 7 6 7 8 12 8 4 11 4 8 10 11 7 8 6 10 7 17 8 10 10 8 
5 11 10 6 10 10 6 14 5 5 6 6 9 8 10 11 9 7 6 6 12 18 10 15 11 9 12 11 4 12 20 8 4 12 11 6 4 11 6 10 16 14 8 8 10 7 9 11 16 7 
6 14 6 10 9 9 10 9 1 11 12 7 8 13 4 10 8 8 7 7 7 10 9 9 10 9 5 6 14 2 13 10 13 10 10 11 7 8 13 7 12 4 9 9 13 7 7 14 7 4 
3 8 11 7 9 10 7 12 6 10 8 4 11 7 12 6 10 7 7 11 8 8 8 11 6 7 7 10 10 8 9 9 11 10 9 10 14 7 6 12 9 9 9 9 10 10 9 8 9 8 
5 9 5 7 5 11 9 5 10 5 9 13 7 9 8 5 12 6 9 5 10 7 8 13 11 2 11 7 10 6 9 10 9 12 3 6 5 10 13 10 8 9 6 8 9 15 6 12 9 5 
6 6 7 10 6 7 8 8 11 6 9 10 7 11 11 8 7 9 7 4 10 10 8 13 9 12 12 7 12 8 7 9 7 11 5 8 9 12 8 7 3 8 5 13 7 10 10 8 13 4 
5 14 17 11 7 13 5 9 4 6 7 12 8 15 5 9 7 8 6 14 9 5 15 11 8 11 7 13 6 10 5 8 12 14 8 5 7 9 5 9 11 18 13 6 11 12 12 12 6 12 
3 12 11 8 11 12 9 11 7 7 8 8 12 8 5 9 9 13 11 12 10 12 7 10 8 11 7 13 6 6 9 13 11 11 9 8 6 11 9 5 11 13 11 13 5 10 15 9 16 3 
8 11 6 8 5 9 7 11 7 11 8 7 10 11 6 9 3 5 5 8 11 7 12 17 3 6 18 11 8 13 11 10 6 6 11 10 12 8 10 11 15 3 8 10 5 11 11 11 7 10 
8 6 11 6 7 7 10 5 16 6 7 8 13 11 11 7 7 1 6 12 9 10 13 9 5 9 9 5 4 5 11 9 10 5 14 5 9 8 6 10 8 9 10 7 11 8 13 9 6 10 
5 8 10 10 6 11 5 8 13 8 8 7 10 7 5 11 8 4 10 8 6 15 7 13 6 11 10 10 9 10 14 11 5 5 4 7 8 6 9 10 7 6 10 7 7 12 8 11 8 1 
4 7 5 9 5 10 11 13 3 9 6 7 5 1 5 11 8 9 7 6 9 11 8 10 3 10 10 5 6 7 10 4 7 16 6 6 12 7 6 6 11 13 14 9 9 5 6 10 6 5 
7 9 13 11 9 12 5 5 8 13 6 6 8 6 9 9 10 18 6 11 7 8 4 11 10 10 9 3 8 8 11 9 10 11 10 8 7 11 13 8 5 6 6 8 5 9 13 8 6 3 
3 6 7 9 6 12 10 2 8 7 8 12 9 12 9 3 9 6 8 6 11 3 7 10 11 5 9 19 13 9 13 10 5 4 8 10 12 11 9 8 11 12 7 7 8 9 8 9 8 5 
6 6 8 5 6 10 11 7 8 9 4 11 12 12 7 11 10 11 5 13 8 7 11 12 8 14 10 6 6 11 7 5 5 11 9 10 10 6 14 7 13 12 9 9 7 8 12 7 14 9 
5 10 6 7 8 5 6 8 4 11 4 12 6 7 13 10 9 9 14 10 15 12 5 12 14 11 11 7 6 8 7 11 5 10 11 7 10 8 8 13 10 8 13 10 7 12 14 8 7 6 
6 10 10 6 5 2 10 7 3 8 6 7 8 6 7 12 4 3 5 8 11 9 7 9 8 9 5 10 11 12 8 7 6 7 11 8 8 5 8 8 9 14 17 8 5 8 7 13 8 4 
6 8 15 6 9 8 10 12 11 15 8 12 13 6 8 4 14 14 9 9 8 10 4 6 6 3 8 10 7 8 7 17 10 9 13 13 7 15 5 9 7 9 12 17 8 11 11 6 4 8 
4 6 9 10 9 5 5 8 6 10 6 9 10 11 3 9 13 8 9 3 6 9 15 9 13 10 5 7 3 11 14 6 12 14 11 11 6 4 6 7 7 8 7 3 7 11 7 7 8 5 
3 5 13 5 13 10 13 4 15 6 8 12 8 8 6 14 6 10 11 8 10 11 13 6 4 10 13 10 10 10 9 10 8 12 6 12 12 9 7 7 4 5 4 9 4 9 9 7 12 11 
7 8 1 5 10 11 8 12 10 7 11 11 8 4 9 11 9 10 13 9 13 5 14 10 12 7 10 13 7 7 10 11 9 9 9 6 10 13 11 9 9 11 9 11 9 10 9 11 9 7 
4 9 9 8 8 6 14 12 6 7 8 9 12 7 7 12 3 10 6 8 11 5 11 10 6 9 13 10 7 10 8 6 10 12 11 6 5 11 10 12 10 10 3 10 12 9 7 9 13 13 
5 8 9 8 6 8 11 6 11 9 7 14 7 14 12 12 12 8 8 8 8 8 10 7 10 7 6 14 7 3 8 13 8 13 9 15 8 14 9 4 9 11 7 7 13 5 11 11 6 7 
8 8 5 11 10 4 2 5 11 9 9 4 5 7 4 9 7 5 12 10 7 10 14 9 12 6 12 8 7 8 4 7 8 8 11 9 9 8 7 13 7 10 7 8 6 8 7 4 11 12 
5 8 7 8 6 8 8 8 8 7 5 6 10 9 8 9 10 3 9 8 18 7 10 10 8 6 5 11 3 9 4 14 9 6 13 10 7 7 7 7 9 12 9 4 11 9 11 17 6 8 
5 11 9 6 15 9 8 12 14 11 10 12 9 8 10 6 6 7 8 12 15 8 10 10 5 7 7 5 9 8 8 9 9 14 11 5 12 4 15 8 6 5 6 8 7 6 10 7 7 9 
11 2 14 5 12 14 10 10 7 7 6 13 6 12 10 5 7 11 8 9 12 11 11 4 9 15 5 9 8 8 8 14 11 10 10 6 13 4 4 7 9 10 12 7 9 7 8 7 6 6 
4 9 10 8 10 5 7 10 8 4 4 7 8 5 8 5 4 10 15 7 12 8 9 10 6 9 12 10 7 6 10 13 13 7 10 3 5 8 13 8 16 16 10 16 11 9 10 10 16 10 
3 10 7 9 10 10 3 5 6 8 8 7 9 8 8 2 7 8 6 6 7 12 15 5 6 6 13 8 7 7 4 11 10 8 9 6 9 10 8 15 21 7 6 3 7 8 10 9 9 5 
6 7 10 10 7 6 6 6 10 2 10 13 7 11 9 12 10 9 12 9 8 9 13 8 7 12 5 10 16 13 5 10 10 10 7 9 8 7 12 8 11 9 9 9 9 13 9 7 5 5 
6 5 5 7 4 5 4 8 8 6 6 9 8 8 9 13 6 10 6 9 12 9 10 9 14 8 9 6 11 13 8 9 7 9 7 10 4 16 10 9 13 5 14 6 7 11 10 8 9 7 
4 6 9 10 12 8 6 7 10 6 6 10 12 14 7 6 5 8 6 14 10 7 11 9 9 9 9 14 15 7 7 9 12 9 9 10 9 4 5 9 12 11 7 9 9 11 9 7 8 3 
2 10 3 15 5 1 10 6 9 6 10 7 8 10 10 10 17 7 5 6 7 8 7 9 13 10 6 7 10 4 10 10 11 8 10 5 12 4 11 7 11 3 9 10 9 10 9 14 11 7 
3 10 5 7 12 8 13 8 10 12 6 6 8 7 8 12 9 6 9 12 8 8 13 8 12 9 7 10 4 4 6 9 7 10 12 9 10 8 10 11 8 14 7 11 9 7 10 2 12 6 
4 11 6 9 12 5 6 7 6 12 7 8 12 10 4 10 11 6 6 7 5 12 9 9 11 8 12 12 8 12 7 10 7 11 10 9 12 9 7 8 8 11 10 8 4 8 6 6 7 5 
4 10 7 8 11 14 10 5 10 6 6 9 10 9 10 6 9 8 9 8 10 12 4 13 12 9 9 13 14 6 12 17 10 6 12 4 9 10 9 5 11 11 7 7 11 9 11 7 11 4 
6 11 8 9 14 6 10 10 8 9 12 8 4 9 6 6 12 9 7 7 13 5 7 9 9 9 9 6 12 4 14 9 8 11 7 6 8 16 7 7 7 14 12 12 10 6 8 13 11 5 
5 7 7 4 6 8 7 8 6 5 5 4 5 6 6 8 2 5 3 4 2 5 4 6 7 6 9 5 10 7 5 6 5 6 5 11 9 10 7 10 6 4 7 5 4 6 4 5 10 5 
