# Format: McCode with text headers
# URL: http://www.mccode.org
# Creator: McStas 3.0-dev - Oct. 11, 2019
# Instrument: Test_Sources.instr
# Ncount: 1000000
# Trace: no
# Gravitation: no
# Seed: 44103
# Directory: Test_Sources/6
# Param: source=7
# Param: Lmin=1
# Param: Lmax=11
# Date: Sat Oct 12 09:05:18 2019 (1570863918)
# type: array_2d(40, 40)
# Source: Test_Sources (Test_Sources.instr)
# component: m2
# position: 0 0 1
# title:  Intensity Position Position Monitor (Square) per bin
# ratio: 100000/1e+06
# filename: m2_1570863917.x_y
# statistics: X0=5.78216e-05; dX=0.0285844; Y0=3.53725e-06; dY=0.0285693;
# signal: Min=1.07149e+08; Max=1.70647e+08; Mean=1.39468e+08;
# values: 2.23149e+11 4.20795e+08 999969
# xvar: x 
# yvar: y 
# xlabel: x [m]
# ylabel: y [m]
# zvar: I
# zlabel: Signal per bin
# xylimits: -0.0496057 0.0496016 -0.0496087 0.0495808
# variables: I I_err N
# Data [m2/m2_1570863917.x_y] I:
128780244.9 138726791 136584201.9 137174269.6 131602411.5 153833706.8 131137184.2 135957656.7 132218349.8 129656045.4 109505848.3 115721929.9 147417078.7 137411079.5 149186202.9 122222626.9 122871053.4 133644760.1 135834796.9 130231251.9 132848537.1 119368029.8 141460104.4 126881419.5 128212950.6 152726566.8 131121555.9 129892601.2 131901063.8 147427081.9 149479173.9 140714538.5 135982970.3 133390413.3 128078648 144663249.5 114303319.3 146579754.2 149951098.8 129090620.8 
136750700.6 149580468.9 119270890.1 149664363.4 140964498.6 132221337.4 124903707.2 157290613.2 163932174.9 135144985.1 133898613.7 130708323.8 134341681.3 149870715.6 138873171.4 138623875.8 134385137 128399347.4 128323204.8 131369923.9 135500984.2 128162306 145905806.7 125061329.7 139259975 140325693.5 137885365.8 148161645.3 142205648.2 152266439 149122465.2 150261665.6 134888945.6 158175166.9 150918692.9 143269315.4 141338687.4 141355423.3 120172622.5 117286647.3 
133596355.5 141578804.2 122423380.5 152294583.9 137690695.8 133259780.8 137759996.7 144024514.9 144348905.5 133951271.6 135333121.7 141677360.1 127582888.1 141281429.5 154949224.6 143335126.3 149751112.9 134457508.8 158927819.2 138034386.6 141671683.8 140068197.3 129077199.5 133892114.9 160473521.4 154931028.4 131960074.8 158458533.3 139763995.4 138432234.4 131139451.2 135948330.3 125086997.2 149205427.7 133773422.7 119331775.8 154001539.1 147542070 144645966.3 139468969.3 
131804762.1 144379348.3 140564464.2 153680590.8 118752267.3 137028492.7 154082180.8 145352594 134575571.4 129830968.3 147212634.7 132834496.6 140104454.3 146627395.9 153158763.9 120818802.9 129373460.4 159797853.7 148592811.1 148213133.1 127000399.8 135302173.7 136487268.6 139553346.6 128385178.8 149238325.3 149592320.4 132299035.3 132637849.9 130618263.7 136322468 139632036.2 120777150.4 149247616.7 140422057 134650411.2 142902946.4 129344218.7 157396137.8 127624668.6 
137766597.2 144922272.5 137193251 146607114.5 129116725.7 146700084.1 144634102.8 130106330 133508274.7 135960552 130300257.4 128355163.4 148463327.9 161066026.2 128728660 130106073.2 128971470.1 143393676.1 134625097 138254515.5 147807648.6 137868240.8 132896766.2 117995061.9 144473246.8 138250131.1 151222949.3 140632396.8 136739894.8 135494467.6 143873892.5 138908367.5 166159485.8 127963802.6 132734916 145319905.5 124990187.6 142959369.2 142311268 159269410.7 
159798255.4 143662268.1 142203540.5 145890087.2 140556154.3 135204085.6 152432967.8 141588544.3 135806025.6 155028496.5 138921501.2 154987647 125155780.2 133499462 148070223.3 148590624.9 145096995 147492421.5 141901341.6 135582950.5 141624356.4 160665417.9 137803377.8 142180937.4 138304682.7 117972208 151388363.9 126080758.9 154294604.2 147320167.9 142787815.6 131587389.5 143970752.3 146082444.1 124119702.1 153790096.9 142959298.3 124576658.8 146648209.1 130471712.1 
121459341.4 144597335.6 162194869.6 152334062.5 128977773.8 148989423.1 135632833.4 137785514.1 128464560.5 134170857.7 150757462.2 143344148.4 148820745.2 141763766.7 145102952.6 150594834.5 137425007.5 124814894.4 142222750.3 147890550.3 133980748.5 134197098.9 144582927.4 140430632.8 122362646.6 130674586.7 146552761.1 137736945.9 138550956 134084906.5 153767737.5 133121084.4 132741083.9 139102719.3 131050782.8 148360486.1 153381783.3 111852715.4 142837694.1 124720967.8 
128016347.7 124836410.3 148528707.2 128518929.8 126043306 133164642.8 149902890.9 141300949.8 145960984.2 144533527.6 134338263.8 137116551.8 142688527.1 138266569.9 138243407 136648273.8 144316206.6 138182822.2 135580797.4 124084448.5 130329346.4 157406028.7 150982599.1 154579416.8 139251582.9 144470185.9 131917359.8 150459237.9 128685996.2 154212081.7 165354356.8 157327892 146605972.9 140382188.5 148146264.1 132161261.8 128166328.8 156009277.4 136986193.1 132947983.4 
132536389.3 124900695.7 138300637.3 145343324.9 142846787.2 138006591.7 151932481.4 142367332.9 124188524.1 147885742.6 144889708.6 150153115.9 147337992.2 124478894.9 153202371.1 145156649.2 148272646.6 118483096.9 122912671.9 150418491.8 137501495.9 127928994.8 140713537.5 159430605.8 152952635.9 145861700.3 155846966.5 117565052.8 146730785.1 140658503.1 144711187.3 147619380.5 142118938.8 141739057.8 132918414.6 162244002.6 126865513.5 129806865.4 151584731 122039298.4 
130033587 130983657.5 124455830.6 149450467.8 132411283.1 131120105 156052308 132621846.3 145860902.9 142702613.4 148089687 139944564.1 128506855.8 142741670.4 129449073.2 132717699.6 148446752.4 130508771.4 127647841.8 141235168.6 127931615.5 147224883 150917983.3 135405375.7 115704579.9 129662659 136786257.5 146023381.6 143873007.3 153789355.5 167050270.2 146271278.7 137776935.9 149708158.3 128651450.3 129569870.3 136711532.3 132886130.2 143577864.3 116451567.2 
133317809 143629661.1 137194299 137076627.6 127124232.8 138402300.1 130982940.2 142274964.4 133451030.5 135090366.7 135621133.1 122593641.7 137169686.6 140810596.8 124306873.1 141116398.3 142367352.6 157125440.4 134013914.4 165441895.5 138559973 137490258 142687577.9 130337792.9 117598021.8 147284320.5 130960209.1 135352584.3 134697964.2 137314259 141832501.7 122962249 141570838.8 139200971.9 149457044.8 131549361.5 135252777.1 143894802.8 161114793.7 148734209.8 
143589181.1 121912401.2 135662312.8 151923691 130033280.7 126940372 154077264 146707180.5 123936127.1 142657006.8 146265903.6 112416345.9 135628342.2 148624814.2 143365301.5 152759686 145455123.9 147085002.6 142985506 159577557.8 134691161.9 147652963.3 139120697.5 147833032.3 136694740.7 133193445.4 123090282.1 144212301.9 133493221.9 138540708.2 152942263 136944836.7 122332824.4 138406243.6 141384195 129334873.9 143531662.4 134965692.3 124921751.9 127417717.8 
148209610.2 118196738.2 155001292.5 154937873.9 123637401.9 156054409.2 117206517.5 140300939.3 149275930 132397825.5 142045170.5 149207506.8 136186610.7 144966517 136976429.4 131975214.8 147159013.1 139089730.4 153445308 129693485.3 128226108.4 167062654.7 138941220.4 137295156 122227570.3 141977185.4 136439761.3 137691278.7 140605065.8 136611348.3 140117810.9 138658205.1 137688526.9 129515904.8 140991941.7 148759245.8 157994332.2 134840928.5 131439795.8 159950515.8 
138054070.1 152045507.9 136923529.3 147014187.6 136162294.1 140155770.8 127370663.1 129368271.5 136689246.8 132246637.9 128782309.1 153282923.7 133316649.2 136373948.3 118849713 133701956.9 139701635.3 164843089.3 144944573.6 151043324.7 143789856.5 130701501.1 136423980.1 139375789.7 133304556.3 137314966.5 147125869.9 113637213.5 118856551.1 141211679.8 137586097.6 131431843.7 126575249.2 137217991 149891510.2 134259711.3 142177388.2 143529733.9 133838080.4 120128467.1 
155116149.4 148136460.5 135575437.4 142001221.2 146815374.6 144961792.3 131265934.9 135071148.3 147364296.4 136114995.4 138082683.9 140154268.7 132023061.1 142512924.3 134193855.8 134128862.5 143883850.8 132649266.8 144566340.3 132969491.6 146547540.7 134688413.9 142593982.7 136751615.7 133532599.7 129551001.8 142747978.8 124956440.6 134732426.7 138667215.1 139319637.5 144983086.2 137862341 141457631.8 141467132.7 130945010.4 133263385.5 147190597.7 131304715.9 132379274.1 
144967222.2 143594440.9 150622732.4 130987299.6 147390834.1 124380091.9 139412288.5 142693002.7 155212765.2 152182146.3 161834000.3 134748369.8 127136425.9 153508636.9 146282123.5 136222310 124047965.7 137484464.5 136176888.8 123400753.2 155302523.3 128717210.9 140202130.6 131301924.1 135504123.7 150452734.2 153592838.4 115102364.7 146331520.5 155254124.9 149167686.9 142738749.4 140242102.7 128029523.6 140327706.7 154519186.7 145506421.6 124997658.8 159653675 119599815.3 
125672190.1 124409143.3 139414115.1 142580962.8 154480481 151547496.3 148753115.1 136151708.6 132431685.3 147297690.7 152836462.2 126902541.1 126195973 140866486.8 156541563.1 128911077.8 151241117 121372024.7 149676890.3 131357480.9 123688525.3 131617164.2 155062123.8 135769696.5 144440963.1 147041478.6 139876423.3 157560596.8 141744118.4 142914605.3 148120645 130021469.2 131659721.1 141459871.8 140118456.9 153716956.3 131654052.8 145978758.5 130488646.6 124280923.3 
135340614.7 153535216.8 129172256.9 117716531.4 125506610.8 153854835 141391750.1 127894856.8 142514116.6 136936312.2 149539247 125160682.3 142717708.5 148212320.3 127121472.1 136738920.5 137163261.3 137745223.3 128600167.8 131921991.5 151294413.1 120261376.4 154990416.1 128788567.9 149274511.5 150072028.8 131920683.8 126631372.7 142158906.6 132789288.6 135606080 139474287.7 135581195.8 139040938.3 147857577.6 160858028.5 140895994.7 156982809.2 133936255.8 139121024.8 
127934622.5 138446317.5 123436140.1 124867292.5 148874348.4 140428920.2 151151300.9 136351986.4 125889680.1 170647336.7 147838949.1 149999960.2 143657267 148268871.7 147703594.5 140716037.8 144059609.1 133583318.6 160222801.6 132592890.8 157463366.7 159015030.9 148729461.2 136066367.2 137703079.5 153677978.3 132001884.1 149142515.3 131910589.6 142446227.7 139085416.1 131179364 149612065.2 135391533.5 139396874 154849189.3 107149066.4 123815997.5 127221832.7 142579829.4 
159905221.6 136080396.1 139033825.4 153145108.1 140086859.8 138183429.7 141015974.5 123827751.9 130571808.3 147721839.5 126726355.5 136853689.9 136709563.8 142049331.7 149732640.9 153976359 160447837 158610300.8 149866083.5 138774697.7 151706285 130549514.4 127736270.3 135726868.5 136083116.7 143568453.6 146778742.8 136341437.5 137516242.2 154798227.6 138991162.6 155356496.4 115771874.4 142621052.4 148459124.4 147316962.5 134597519.2 148781391 129715544.2 146019711.8 
118883901.5 156186836.2 127553877.4 144395596.2 134556688.3 143448564.2 150662433.4 133340552.6 143569479.3 131080202.5 155788073.1 119342427.4 158586939 115182038.8 149717312.4 120319734 140981868.4 141806327.7 143538413.4 142108260.7 134561719.6 142654519.5 135772810 160348236.3 136293994.4 136474154.3 129087319.1 142220858.4 138766379.5 149652614.4 129513929.9 147161403.7 136824295.8 137791697.9 149243332.1 138838421.9 133379745.6 133571260.7 139308993.2 157317014.4 
157657284.7 128366919.3 142026887.6 129585612.4 137450504.1 148493657.6 141966804.5 137304826.9 141061327.5 145613331.8 140360584.1 156349851.3 151431908 143802172.7 148512991.5 145902995.3 138832727.1 142471839.9 134828943.9 151060857.7 153723045.5 125257027.1 147859747.4 149499056.3 125378907.2 143800623.1 137798806.5 148475142.5 140061031.8 146537817.1 146740325.1 141861971.6 150026677.9 135975127.4 132930417.4 116303050.1 134449369.3 141712322.3 144567691.6 134661164.1 
127525981.2 159269414.5 139650118.1 146124261.3 157341907.4 143019278.4 151521790.1 154991952.9 138625460.7 130275148.9 132214814.7 131633272.6 133282902.3 153092744.6 157947900.2 148677214.2 150442623.5 127222885.2 135498587.4 155464149 128743952.4 145984781.7 156363500 140685017.6 142773654.9 148830404.9 151191405.9 139913417 143148445 128896856.1 140475505.3 151373967.9 137572644 148724152.1 133389689.4 120952348.9 138332530.3 128739316.5 147524626.3 150812648.7 
116342698.5 136579761 138104673.9 139187858 140453866.1 114266548.8 126323355.7 121693766.6 140941683.4 159136535 123183127.7 146668956.3 150232077.7 130359310.4 129007859.3 166259937.8 149670371.4 148021722.5 140540214.3 128894813 147796625 156627473.5 146976705.4 158459074.5 127471799.8 134682965 133959928.3 140796781.5 155159546.1 141707253.7 163361776.1 147171326.5 137605309.2 144628861.1 142844215.1 133761278.9 140791951.2 124049292.7 142772213.3 141902323.4 
134500008.8 142472481.9 147655521.3 146637132.2 132454261.9 119751490.2 139766695.8 124647797.9 154388174.3 153476778.1 141148227.5 143693653 146203054.7 150509194.1 143930949.5 139600418.2 148296650.3 166669897.4 139903032.8 136061169.2 137413821.8 152183445.5 132462108.5 131310594.7 158770016.2 149131714 144590906.5 165937827.3 146596855.1 133613447.3 139037061.8 151488318.4 142894169.9 133613976.1 139004444.4 138459768.8 142761641.7 121179598.3 124847322.7 156732217.5 
136664553.7 125340990.7 139017813.9 143932654.8 131591970.6 148996892.2 151402471.7 170245070.6 141465943.9 129987127 128029709.6 144749546.6 124889104.5 136581435.3 138160169.6 132346598.3 139318525 155087842.5 136117037.7 148594794.8 139967252.6 142287082.4 154438754.4 150967772.4 145744734.4 123367305.3 120754310.6 138216557.9 147460202 140307106.9 146985262.1 115908450.1 147769287.5 134205515.3 126798024 142269922.3 146400635.3 144109698.4 146509294 132257691.1 
151290170.3 147979444.4 117020105.7 140522590.5 141008919.6 132783957.5 125825280.8 135689167.8 130832662.4 137072112.4 123109964.4 140135225.7 135846441.8 148816438.7 148753496.6 142898355.7 160317940.3 133020087.3 157249886.3 136507066.7 140153413.3 146178150.1 120371463.9 125338981.8 152074683.8 157873353.1 127204416 112630535.7 127884946.1 136886131.7 145890573.7 127328912.5 135227473 151771815.5 130852805 132659009.2 142266235.6 156669905.8 135304009.7 148471931.6 
148818060.9 128859768.5 133147778.1 148157057.5 147116896.7 136122271.3 145887440.8 130315204.7 135044767.1 163294306.9 115488251.4 142176054.1 135030117.4 125451492.3 152871743.4 160925153.5 129588249.6 142851168.4 128176292.2 133786181.2 157368366.8 136960951.5 134220456.8 143320977.9 152266459.1 124344665 128979677.5 136754103.3 139791094.1 126622696 134493932.8 141396709.2 139426639 144650289.5 127575241.1 138011901.2 141947173.9 139641545.6 145824861.6 136637346.2 
140521250.9 143162885.7 144917984.9 122793526 141486187.3 132969776 153641950.9 135789334.1 155810629.6 135538666.6 139357208.3 148331659.1 157611634.5 133509219.8 138558467.4 143470063.7 133492007.1 134306389.6 140112218.6 139437584.6 139620349 130893523.2 135232281.5 126947752.4 148302783.6 132397456.8 135285522.3 140317641.9 126229025.9 149554111.8 133365103.8 137545060.7 134473990.3 144405148.6 143818846.5 149234886.5 144256617.5 153045574 136677254.5 144789315.8 
145585279.4 128635657.9 159093118.7 139104344.8 138560146.7 150514476.6 140685623.1 144477074.2 156622822.4 136814989.6 138327629.2 123398036.8 161630482.5 122694569.1 130057065.2 130740437.6 135347398.6 109189030.9 138098022.5 142516322 155112321.7 140540426.3 125315038.7 138812522.5 131569731.7 133172268.2 145101338.5 151797111.9 142284462.9 141604344.1 152956401.5 139236315 130583483.7 159554057 131005846 141409163 127713038.8 137890941 152647795.6 150253953.5 
138575321.5 156408299.7 151484877.3 138042530.5 142362388.7 144523855.8 127453417.4 125847340.9 142561248.2 121574572.6 137977835 130760703.1 140589409.9 136648390 124414096.5 142976065.6 142126062.4 144895442.2 141751928.8 126280743.7 120983841.4 144842487.6 138898319 134194490.9 143341806.1 141282015.8 134297610.2 150712803.8 122851632.9 151219991.4 133984337.8 130052152.2 134613217.7 162852750.3 148572166.4 137402435.4 126770468.8 144624693.3 130099738.4 121336500.8 
136263066.6 132531463.2 133209351.8 149608995.3 145674461.2 135164015 134501590.8 153664586.3 117572935.7 133197626.4 136446414.8 139811377.1 137814484.7 135673416.5 134691778.5 147300643.4 148992066.6 124363626.6 143397685.6 129116280.7 151767305.6 139391359.7 161268058.1 156343428.3 115992184 138502263.2 147785833.7 130618009.9 124908907.6 123872439.3 142951572.2 141209356.9 127582240.5 135223087.2 144818479.2 146542232.2 139656723.4 125511242.8 152644026 137510992.3 
136531915.8 141639019.7 120522668.2 156452145 145403375.1 138069157.1 128554595.6 129150723.5 142483748.6 134382942.6 126589079.7 145236228.7 131551096.7 140835626 130011070 121732716.2 134053301.6 150178720.1 144435124.1 149993412 138401109.6 157059645.4 144044426.6 144376716.4 144598718.7 138295832.3 139565098.7 137670098.6 158496116.3 156693590.9 136098546.2 122783079.4 148297051.6 141601256.3 142164525 150731444.5 149623539.4 142110675.7 117589445.1 132873644.4 
127761238.4 125181560.3 128421636.6 143198570.3 134406079.2 131522535.6 131803349.5 152190998.9 145876703.9 138277671.4 128616942.6 141716205.2 130156293 125329664.8 153728370.4 116045005.7 152448744.4 136793692.2 143517760.1 140142524.7 129793099.5 144614146.7 152928725.1 133984689.6 153872519.7 119823535.6 140825344.4 124180149.1 150754270.7 135919294.8 141046928.1 128936760.7 147635354.5 157067664.2 135364650.5 142292901 133348342.8 140324741.1 123487437.8 129304882.2 
149707933.7 125042086.4 140559929.5 149122999 141528573.9 135779658.4 133951707.8 146200349.8 146668221.5 147624660 128851326.5 136209255.7 133863914.6 136185218.9 129425805.9 151425924.2 143018971.6 140805504.8 145717197.1 139222960.4 138857905.5 139831993.8 148224472.3 152277777.1 155078233 151797926.1 147026671.5 155215787.7 157972975.5 152941970.9 146468002.3 131471653 143278936.8 135773598.9 142094104.2 157693933.6 126309061.6 136159216.6 137607343.3 136445653.9 
152633971.2 123504354.2 148539189.3 142492779.5 132107369.5 142072928.5 164190271.2 141804622 134161990.7 149966815.9 144461691.5 124000014.8 145521851 112291230.4 138877011.8 134105219.9 130852791.8 144341680.3 151064227.1 151632787.7 125584826.6 156974487.4 160271204.9 127897012.3 138012505 124664811.7 120001415.7 140432487.8 149117847.5 148419902.8 133654910.5 163029211 148694191.3 155260237.8 150890628.5 130259823.7 157589036.6 133450227.3 137601175 138046295.7 
132064371.1 135522102.3 151548932.1 137912938.7 129065627.4 141513313.7 137918305.6 124836846.5 136969114 150816507.4 158205567.1 155764930.8 140757747.1 150452218.3 119936954.1 131086763.9 123243941 138134796.2 139666440.4 136327526 129369321.7 129038146 148426242.7 141263326.4 139748678.7 121581164.6 137504665.1 123865321.2 155013691.6 156300970.7 126898901.6 144378137.4 133699327.9 146648281.5 141508560.3 152678962 130511210.3 131746504.4 140385401.7 132767977.9 
120115087 125273788.8 151396596.2 148322726.9 148081836.2 123221273.7 149170367.7 135346969.5 121276342.4 115486629.7 133485036.2 143672139.1 136915627.3 122720780 142662410.5 157900141 132961551.7 132671587.4 138040224.4 155036816.4 133280154.5 148954335.6 139880361.5 138930776.3 132959027.4 136100322.2 129058753.1 161910628.6 141662628.7 136490944.6 124336167.5 119250658.3 124272938.5 137744658.2 149926959.4 139057140.7 128114220.3 130859539 132414103.7 149259113.7 
121189307 147036956.1 135024497.1 131268862.5 132152481.5 127268391 127887152.8 133977852 145646487.6 149842941.4 145793004.9 138541564.2 124959269.3 139251194.9 136087465.5 109113918.6 137846767.3 130341326.5 152661326.8 123500990.9 146519291.5 141328450.9 145876782.6 123867309.7 128558841.8 135665046.5 138275053.1 132914072.1 153225236 136680494.9 139773506.5 154158328.9 157133010.3 128560536 148945920.8 153447173.6 139050564.5 152704324.3 127900830.4 157886651.1 
133783520.1 130691603.5 143184391.7 124206388.4 147448103 137511802.7 133925503.2 131928747.4 137082816.6 126438723.6 149684870.6 135926471.2 123765154.5 127893392.4 145145654.5 116102699.6 134066199.8 134366660.1 163241086.3 155361343.7 133303837 151672894.7 132404475.1 126742457.9 144323604 150055595.7 145784572.1 126021919.5 130685278.7 142764451.5 147094207 161121861.2 143025233.2 146816276 132351456.2 145619611.5 155346764.7 131743909.2 152556704.3 139547107.5 
# Errors [m2/m2_1570863917.x_y] I_err:
9740545.234 10709304.81 10028363.99 10270294.13 9996304 11340586.14 10044245.66 9896986.758 9813673.299 10044594.19 8949760.658 8940850.142 11198572.23 10462755.35 11317441.88 9586045.377 9911274.617 10332795.18 10297042.17 9903443.48 10183709.97 9401634.402 10636613.82 9889911.297 10013267.71 11154110.07 10035028.44 9704062.45 10475113.83 10601474.1 10972781.24 10526485.35 10202700.13 10439365.51 9627926.879 10599907.26 9400683.725 10698010.29 11167415.43 10165838.06 
10715390.06 10876781.07 9520239.563 10883927.3 10504619.79 10594232.05 10397756.93 10812395.15 11725228.9 10644017.87 10606105.5 9727023.51 10078098.58 10746797.1 10513885.13 10281736.52 10510751.83 9992612.653 9834213.445 9948007.372 10401830.3 10192957.49 10680955.99 9505465.502 10584097.89 10681953.46 10408099 10583758.61 10556559.77 11136640.45 10840548.44 10753394.83 10348328.38 11787399.36 11259645.73 10894955.3 10930596.58 10247978.01 9737691.651 9157898.503 
10120610.44 10525153.91 9895290.588 11920013.57 10422501.87 10403820.04 10651110.95 10938342.43 10694925.74 10142689.51 10141346.04 10296828.47 9733413.564 10537818.51 11001057.04 11112929.87 11187165.87 10483644.13 11660903.86 10090520.15 10627705.26 10635151.53 10016082.73 9820533.34 11823528.51 11907873.22 10222855.45 11133650.39 10529025.7 9879677.245 10540283.69 10435880.14 9860144.286 11156351.7 9942801.83 9354397.78 11060976.21 10979625.37 10660123.04 10681880.74 
10147281.62 11063186.35 10477832.56 10692259.61 9612027.965 10508587.44 11380464.08 10934639.57 10270657.28 10037155.68 10846399.92 9987653.021 10735562.44 10439912.66 11424596.21 9516607.565 9685027.447 11368823.3 11430462.12 11048734.41 9969745.609 10318602.85 10261291.06 10767152.2 10180602.2 11110154.32 10847186.14 10260542.76 10400619.05 10192953.75 10214211.68 10492384.61 9501631.536 10752133.09 11016016.65 9986896.611 10384928.67 9828652.28 11639319.47 9676302.559 
10408291.61 10658244.11 10056384.42 10891644.17 9785404.084 11224115.97 10735458.15 10011067.79 10106517.43 10327648.13 9572014.832 9570787.945 11016508.71 11685057.25 9460869.691 10430539.83 10312123.44 10877497.14 10671148.15 10258154.52 10654142.89 10774544.56 10114527.83 9517762.574 10615172.64 10376148.6 11197983.1 10500285.62 10938641.2 10441551.75 10429216.47 10165992.9 11637621.54 9439762.513 10088574.19 11082829.41 9899702.958 10571000.6 10898172.25 11420408.22 
11568713.02 10656419.6 10343864.72 10590344.04 10664798.24 9855526.356 11155926.14 10322128.62 9956954.94 11421707.91 10371215.65 11083472.56 9889680.767 10204145.88 10784796.8 10895364.24 10827336.06 10741788.51 10839825.61 10259242.71 9921909.579 11602849.3 10335708.86 10597554.58 10331726.32 9393259.486 11144260.55 9647167.272 10955274.17 11182837.5 10386010.66 10223835.33 10276730.64 10747987.05 9986886.395 11530574.92 10685766.35 9409887.502 11160267.7 10065784.3 
9157819.814 10963817.93 11869029.69 11518423.67 10096308.8 10989531.57 10177521.59 10467424.79 9764180.564 10556368.85 11330742.69 10739456.48 10972790.02 10242921.98 10771550.32 11165413.84 10320579.17 9664969.039 10488886.23 10913091.88 10562415.07 10390055.17 10647620.55 10932760.6 9739416.726 10040050.68 11158164.17 10057544.32 10581945.97 10149306.93 11420412.49 10172008.17 10130164.04 10730664.91 9986572.857 10880843.75 11661613.68 8636082.489 11124283.8 9587974.189 
9844978.136 9533300.949 11075327.63 10075304.76 9903339.205 10286095.85 11171446.47 10728754.85 11112330.2 10900368.21 10152126.26 9941591.356 10628072.47 10425495.25 10277292.34 10284056.11 10728679.17 10352602.93 10054778.59 9878484.118 10300835.84 11681969.33 11391968.36 11335898.36 10225746.43 10707587.48 10454336.63 11415257.22 10014160.93 11389459.97 11651065.18 11330090.18 11052878.47 10608736 10987636.57 10072469.18 9676790.558 11371586.07 10849974.79 10263993.88 
10281208.99 9806897.82 10832914.48 10792771.96 10827222.99 10605878.51 11468531.74 10625293.39 9533651.618 11015290.05 10743332.52 10986473.3 10849550.53 9759098.225 11060285.22 11084449.11 10977594.01 9277670.108 9801505.771 11218038.98 10078804.04 10198434.94 10436262.07 11859848.31 11100220.97 11035833.33 11287227.14 9403370.315 10370573.71 10732559.5 10751658.19 11285659.54 10979511.64 10463316.46 10466893.09 11522298.66 9859723.839 9929706.449 11547203.39 9402573.573 
9958002.793 10095742.73 9542188.468 11176050.71 10528313.37 10335150.7 10915220.43 10157790.38 10846347.61 10806121.85 11274599.77 10545633.47 9801956.903 10711596.87 9858130.241 10232750.46 10883299.16 10158175.41 10117685.1 10466856.36 9371010.305 10649825.84 11873913.08 10013578.96 8853189.961 9880263.12 10337662.33 10822381.35 10858445.73 10963694.73 12432356.03 10914788.65 10484928.13 10752923.19 9704382.115 10397981.53 10543011.92 10091541.14 10829428.94 9594347.687 
10178001.88 10475279.31 10659982.36 10463390.33 9727754.857 10428138.47 9817476.29 10669554.63 10531516.19 10435635.29 10502659.8 9605767.296 10054822 10103620.85 9551819.548 10623487.27 11079059 11728485 10027306.12 12365859.98 10590057.93 10575420.28 10823859.04 10316063.93 9589731.902 11011393.41 10057866.26 10359361.26 10365982.93 10599924.21 10307959.18 9933280.051 10952800.75 10540979.66 10885992.36 9782877.108 10280851.42 10636598.73 11379831.21 11143293.42 
10814520.21 9787188.395 10405770.02 11211267.62 10300392.59 10074487.9 11219246.67 11173307.81 9667784.223 10870707.38 10360078 8805514.119 10016183.54 11323989.3 10475735.6 11170460.7 10812601.98 10806597.95 10538786.26 11792347.22 10306490.75 10997190.66 10437616.02 10644406.89 10331418.66 10341089.15 9753162.383 11042793.29 9780480.678 9924495.464 11663012.42 10546212.13 9207872.276 10718777.82 10637621.83 9922131.23 10911290.85 10835735.45 10076724.98 9729202.503 
10958687.26 9674565.417 11238605.3 10872453.62 10373849.97 11135951.2 9279993.065 10483186.1 11075993.11 10064733.18 11008448.68 10827979.76 10437898.49 10742575.21 9977828.958 10259746.27 10858970.32 10343120.27 11038693.23 9884404.469 9551352.431 11773034.92 10586588.13 10498873.47 9913445.208 10677170.09 10190000.61 10204067.68 9935564.608 10083596.83 10569188.57 10056064.37 10226633.27 9426175.357 10412343.43 10932622.86 11404117.06 9925571.187 9765105.927 11663426.54 
10613897.42 11214087.63 10214323.95 10981747.46 10271131.13 10550797.8 10341266.67 10048647.91 10374076.36 10307154.85 9658358.377 11605598.09 10217767.68 10517802.07 9326637.566 10329605.19 10744410.97 11994109.21 10330825.42 11225267.83 10762591 9944278.198 10524106.39 10714121.22 10062706.36 10510285.64 10794960.33 8885334.091 9325961.91 10835008.43 10702298.9 10145240.95 10113953.19 10306499.15 10797643.98 9869267.225 10385166.24 10745636.86 10034187.27 9332245.789 
11351910.92 10923521.1 9830677.905 10565154.07 10976684.51 10260984.12 9868643.926 10400622.68 10579491.41 9634203.652 10584793.31 10542298 10235829.67 10585906.49 10245199.44 10199382.85 10910837.59 10194083.65 10770092.38 10102090.65 10919504 10447310.04 10657359.35 10533489.62 9934264.182 10038906.86 10448859.99 9937857.766 10395503.28 10532462.39 10945829 11023038.03 10534332.37 10683437.25 10663254.92 10052148.57 9729651.721 10803103.05 10268079.31 10689064.4 
10697983.71 10892743.19 10834242.55 10297815.03 11114459.58 9385490.919 10729611.52 10620033.27 11569016.79 11676347.32 11719127.74 9761386.497 9865060.397 11023834.65 10950244.18 10532165.03 9705787.936 10680696.74 10439338.46 9431028.837 11272898.83 10437604.39 10333525.89 9611620.493 10334873.05 11456231.22 11147879.03 9488243.954 11191919.24 11474003.61 11259944.13 10353522.92 10849563.23 9806246.95 10565620.23 10885762.19 10836269.2 9464908.624 11272079.14 9646115.23 
9571309.092 9716401.257 10749510.88 10421679.6 11100947.91 11188729.76 11139351.82 10255512.72 9875080.414 10774690.75 11281032.9 9972812.416 9275654.726 10720208.75 11410859.76 10364456.33 10752526.49 9132793.737 10831615.02 10246307.77 9773833.912 9770378.124 11492353.23 10081760.26 10851723.56 10826322.86 10237866.39 11678572.33 10638210.37 10707444.78 10995389.46 9661977.188 10253066.69 10683948.63 10550098.69 11099507.94 10091971.36 10786529.87 10094437.17 9222780.201 
10251369.76 11294910.09 9629669.48 9640834.936 9692592.581 11424490.74 10722989.42 10135355.7 11109882.38 10313912.71 10694277.73 9816745.763 10688669.96 10808618.86 9956269.412 10314198.3 10272338.27 10627212.72 10470215.47 10164405.99 10999046.01 9749089.68 11316952.02 10087804.3 11095122.18 10958366.97 10037089.87 10129582.94 10795841.65 9969683.827 9970074.924 10702356.6 10294136.29 10631068.98 10821950.83 11834482.85 10856262.4 10993077.78 10324236.22 10693890.33 
9982254.917 11080937.62 9479205.697 9483036.621 11047219.43 10265179.91 10841790.52 10356099.39 9652105.327 11933833.4 11164259.07 11203819.22 10540393.44 11003370.46 10848781.93 10775229.15 10592491.08 10418822.18 11947986.35 10095683.48 12033932.25 11708820.05 10979702.07 10651490.81 10377749.49 10884982.15 10261137.63 10831037.97 9916497.073 10864643.24 10347810.16 9819181.135 10590235.61 10216711.64 10396692.56 11339034.41 8778952.864 9894069.224 10390646.81 10539158.59 
11791641.92 10396513.62 10487769.1 11142555.39 10333567.38 10206523.65 10712431.57 9496462.585 9997333.237 11301670.98 9703404.411 10259726.36 10305999.46 10818787.02 10871847.4 11304174.54 11979301.62 11643017.56 10917229.25 10347311.67 11157418.78 10413805.92 9962267.067 10240635.06 10131599.21 10743821.01 10967913.97 10575844.79 10574944.44 11104286.06 10235948.69 11469568.46 9285654.466 10590678.73 11074872.53 10850994.44 10387610.16 10690211.46 9994435.943 11002358.86 
9524361.811 11558045.35 10294160.19 10850379.73 10137252.01 10570709.83 11310017.67 10359788.35 10760685.74 10243839.27 11243447.53 9434989.148 11572481.09 9099027.8 11053096.91 9948753.189 10787645.91 10626176.23 10881732.46 10651409.13 10525181.28 10003453.87 10276919.23 12000182.7 10568643.45 10559061.39 9632280.52 10887638.93 10514684.57 10984405.1 10167623.77 10867960.38 10504706.18 10358011.28 11394225.12 10253852.43 10314032.35 10365324.64 10617013.79 11475661.12 
11590639.28 10040420.48 10665062.23 10119149.76 10673264.56 11251166.69 10569318.53 10390827.62 10831025.65 10864864.83 10586219.06 11283328 11439493.38 10803393.6 10899032.74 10716363.85 10414100.64 10617952.48 10453234.14 11190280.41 11337163.83 9827105.739 10945555.3 11339288.71 9486826.86 10929408.99 10038394.95 10675616.05 10957039.1 10422399.39 10831785.34 10486330.82 11164318.88 10365276.36 10230681.61 8702311.175 10074265.73 10538374.35 10725951.35 10168300.3 
9939540.383 10957709.13 10432941.76 10580713.75 11391425.97 10835056.86 11005353.02 11255723.47 10232673.82 9899231.618 9868583.865 10319493.53 10140840.81 11280529.69 11363680.98 11330960.27 11271581.79 9647753.255 10387041.42 11021155.49 9739611.251 11100907.5 11571132.22 10686437.98 10541975.84 11087997.32 10971919.6 10496907.17 10562142.94 10043380.85 10463650.38 11171958.85 10429521.67 11279703.96 9899277.54 9508122.774 10661872.82 10228732.03 10799337.91 11146953.26 
9500339.601 10086322.31 10078130.47 10554978.81 10585182.1 9084334.288 9686978.235 9079741.029 10609095.34 11676953.1 9372304.073 10689663.86 10987866.49 9763382.26 9817849.749 11462703.65 11354681.21 11083079.62 10884719.03 10239299.66 11424010.02 11497403.87 11114289.47 11880863.14 10279493.81 10273817.87 10241130.11 10461415.05 11567778.24 10463074.36 11616959.4 10759266.14 10419770.64 10963393.63 10733014.44 10016142.76 10742808.42 9503017.975 11043173.89 10576293.45 
10202459.2 11021578.28 11366844.28 10929549.06 10338750.16 9485502.273 10776413.86 9619136.615 11330237.49 11445717.71 10459325.28 10817974.15 11038287.66 11157044.6 10489813.84 10556120.29 10781968.34 11990567.33 10424185.39 10311763.54 10857800.79 10990330.58 10037135.77 10129309.31 11988542.34 11318770.18 10806408.83 11731195.66 10959486.16 10453699.28 10126465.81 11152180.91 10742588.4 10140467.15 10399462.46 10196015.84 10294912.14 9628042.471 9938206.023 11336286.36 
10458748.4 9640313.109 10246346.34 10435872.71 9729359.644 10965524.13 11321337.36 12061923.81 10453189.3 10264477.57 9799002.141 10683590.73 9906355.985 10238630.62 10449532.24 10064584.2 10458880.5 11323559.64 10333416.51 10892575.62 10805842.53 10765499.62 11047186.55 11709738.24 10899959.47 9080532.74 9697100.957 10684300.28 10802105.52 10590871.04 10324631.81 9181592.415 11157391.66 10341263.16 10046185.87 10323131.37 10719186.07 10710852.64 10961450.4 10879561.49 
11118242.41 10708040.71 8998225.407 10884301.33 10607812.38 10025174.37 9540506.583 10646203.17 9955360.982 10470357.83 9845624.841 10594546.6 10535189.56 10855469.27 11175438.02 10768826.99 11398297.47 9778289.305 11667132.86 10147050.68 10471387.07 10708292.34 9544695.19 9551279.582 11311503.23 11453236.73 9412702.916 8471755.045 9600796.203 10677573.7 10610039.04 9843273.681 10686538.79 11228489.65 10181191.37 10153863.91 10875389.43 11261669.52 10026802.91 10811957.35 
11167385.91 9601298.263 9832124.214 10821721.08 11387369.24 9874334.088 10975856.09 10054931.31 10236676.67 11865413.09 9360487.427 11247145.78 10509786.04 9531390.58 11547707.49 11771876.97 9861899.252 10741218.98 9861579.031 10315735.79 11301705.68 10325372.54 9628846.406 10429114.17 11425380.64 9954024.313 9684595.05 10403845.91 10235860.67 9754002.983 9938287.907 11176499.92 10637926.52 10478330.81 9648230.906 10680473.8 10563532.07 10476356.14 10629206.17 10287387.12 
10338350.44 10599281.58 10775967.74 9304649.239 10414339.09 10188759.36 11351931.16 10365213.6 11267003.88 10453022.29 10500858.69 10683580.67 11550955.57 10374147.12 10460752.1 10527788.97 10612642.5 10207591.5 10299134.36 10988390.44 10274693.31 10319270.96 10402814.53 9643455.121 10906024.98 10083743.06 9818215.91 10239747.77 9922583.138 10927611.79 9904494.241 10516494.29 10373935.58 10475853.5 11023254.05 11152796.22 10813362.64 11180826.44 10127450.76 10706078.01 
11234763.57 9808371.86 11136626.69 10856388.22 10475883.47 11067163.61 10487835.35 10677302.46 11102252.9 10400089.46 10856778.78 9097494.587 11442110.03 9748494.527 10080181.3 9780467.279 10133589.99 8439966.289 10400691.82 10570894.7 10948879.99 10494797.31 9978094.588 10288539.71 9775693.889 10244578.83 10654086.46 11133191.64 10879153.56 10978073.31 11075984.27 10614522.12 10049599.23 11952101.82 10149632.28 10738882.31 9785386.477 10213121.1 11347165.84 11245717.63 
10649122.58 10759620.28 11050728.3 10328887.41 10570441.48 10508201.34 9612607.914 9467645.678 10576805.33 9704245.562 10568738.52 10022408.51 10448919.45 10292500.9 9774799.252 10272336.29 10286519.05 10848096.42 10360603.66 9722811.79 9694976.663 10648031.97 10405490.98 10125702.02 10358509.49 10487651.16 10246401.25 11186951.04 9845476.689 11190646.29 10095348.84 10154242.01 9697398.183 11876747.96 11075902.48 10581482.93 10032311.23 10736580.01 9668084.423 9397235.493 
10387018.05 10279116.93 9923147.734 10988738.14 10616873.79 10036586.14 10234117.38 11249340.69 9394102.154 10324813.29 10142121.42 10896436.45 10273921.12 9989260.478 9970988.181 11075880.29 11011649.19 9636290.547 10364269.75 9193600.945 11317571.15 10529857.33 11932764.1 11217736.18 9552058.602 10253801.54 10940525.18 9831734.643 9408969.233 9430577.334 10723150.47 10970443.99 9971072.621 9840613.236 10948568.92 10786017.05 10617519.35 9394810.026 11678679.3 10171175.03 
10291576.65 10597804.21 9370984.529 11281779.17 10741941.6 10240223.88 10142251.35 9818453.862 11043008.24 10083959.12 9884492.31 10816225.58 9927761.653 10812683.04 10027710.09 9581989.7 10444043.47 11114549.8 11032840.56 11083918.8 10496882.84 11477900.86 10769582.7 10784842.78 11007696.79 10646224.7 10112050.75 10204331.83 11380296.92 11624203 9894000.251 9156969.796 11367856.98 10939494.57 10490842.75 11453526.19 11262746.69 11007742.68 9387396.604 10213917.48 
9526154.868 9664675.551 10191209.71 10449517.66 10399417.09 9710781.624 10353192.38 11390896.11 10752067.55 10283369.76 10122962.7 10888541.35 9968950.286 9990287.725 11118385.06 9394588.67 10955964.96 10594908.76 10671511.02 11083515.81 10061533.05 10333165.04 10813692.21 10381954.15 11314527.99 9218833.816 10755868.34 9816170.011 11284824.21 10138725.71 10701617.76 9860708.574 11272242.27 11178442.52 10167403.91 10602815.93 10105863.76 10618774.03 10219113.03 9651530.982 
11336269.96 9930727.635 10535659.85 10944699.58 10432924.51 10210456.7 10303830.5 10824688.36 11011447.66 10796417.11 10047573.55 10302108.47 10349781.74 9783862.41 9495584.869 11239697.66 10886958.73 10225953.04 10779745.37 10806724.89 10535918.52 10074561.18 11265141.75 11348989.87 11400994.93 11196256.56 10820787.2 11114003.58 11582039.73 11386988.11 10722608.11 9944366.207 11326921.39 10459243.56 10578972.05 11756980.84 9972578.979 10388601.27 10793722.29 10240538.77 
10808578.94 10152235.08 11260379.07 10443663.42 10440673.43 10753078.57 12205281.51 10345434.29 10219485.09 10875825.7 10731997.57 9681687.175 11027557.82 9083668.894 10548886.43 10549637.73 10269870.3 10461419.6 11371211.58 11357259.28 10173436.51 11725403.41 11967491.15 9802670.602 10659098.8 9798311.913 9185820.057 10756060.22 11209140.21 10752824.07 10186641.48 11847412.61 10780592.59 11395358.36 11558085.4 9941827.075 11863406.65 10243406.34 10393995.86 10320891.58 
10403980.59 10521282.94 11095586.38 10178105.8 10068890.56 10309316.89 10606849.91 9901282.149 9976408.338 11178702.87 10981245.17 11567514.67 10657110.62 10992012.01 9098959.111 9938200.324 9996597.646 10618768.49 10867996.87 10224227.59 10094413.22 10091177.66 10836510.4 10865840.74 10556576.3 9672596.38 10501429.06 9630426.372 11673683.55 11334755.89 9893386.641 10798096.02 10373445.79 10976594.67 10551221.68 11280612.85 10153580 9924518.626 10801549.51 10086348.49 
9352297.92 9558807.057 10777205.77 10747521.76 11461055.21 9337809.08 11137938.92 10507248.27 9485238.734 9018680.506 10126233.7 10425455.67 10423531.54 9450791.532 10519255.59 11460122.28 10431814.45 10131582.26 10584212.07 11390906.12 10314896.35 10708205.02 10758115.12 10528988.65 10209439.33 10475222.67 9929594.595 11832118.14 10399876.13 10010633.18 9829749.227 9713988.336 9386932.682 10576100.76 11212529.93 10596498.23 9869863.919 10002656.75 10094509.4 11010458.54 
9273492.12 10843600.19 10200326.48 10312722.41 10659587.76 9952678.424 9749068.573 10020103.16 11244832.52 11040843.25 11235660.75 10434774.07 9369346.415 10672510.27 10573516.05 8760890.526 10661568.64 9761272.332 11220952.61 9267222.395 10847660.83 10574393.74 10575477.77 9563538.748 9942523.308 10420693.03 10877704.74 9825107.561 10936125.49 10497463.16 10495991.58 11535550.64 10927453.89 9804869.585 11128415.34 11383795.79 10596720.83 11247583.57 9928664.211 11688412.2 
10032625.51 10112144.5 11061023.04 9635874.093 11253127.95 10447939.59 10477063.78 9856811.838 10464288.05 9622087.291 11011366.22 10413272.75 9593489.884 9796296.781 10750563.12 9234384.924 10331075.23 10403843.02 12116491.34 11804155.77 10003699.69 10913113.45 10074472.74 9596311.209 10906538.91 11152145.51 10825656.44 9749785.315 10007143.22 10557932.25 10627191.69 11602061.78 10780520.8 10913069.46 10327613.33 11255753.29 11259015.36 10414489.91 11222972.1 10334363.7 
# Events [m2/m2_1570863917.x_y] N:
596 614 619 649 632 661 589 650 593 598 585 612 614 599 599 580 576 610 626 639 597 569 639 610 610 652 607 618 579 636 622 617 607 621 606 663 548 624 643 584 
555 645 609 678 642 591 570 721 651 583 592 611 619 669 655 608 644 613 609 639 625 589 651 618 606 599 625 662 632 658 643 676 624 657 637 635 583 626 601 594 
618 612 560 612 646 585 622 639 628 611 638 631 635 638 692 638 620 603 650 658 618 608 585 665 633 639 634 643 645 623 598 594 599 617 624 611 634 613 638 609 
607 615 597 672 585 621 652 598 642 606 654 626 647 644 656 572 618 651 599 660 569 627 653 627 629 606 631 594 605 623 625 639 611 665 613 634 665 602 633 580 
631 637 634 643 602 623 651 595 651 602 660 625 652 657 657 571 586 598 590 650 652 605 631 567 658 626 608 639 631 588 640 592 634 627 635 606 600 649 641 665 
631 631 638 653 646 627 648 617 651 673 604 655 609 663 615 653 617 664 626 648 652 635 635 632 627 576 643 594 675 642 639 598 639 634 573 632 642 625 659 594 
568 615 624 616 627 619 609 637 683 599 613 644 624 668 632 678 606 604 614 630 598 615 625 583 588 626 632 632 609 603 603 610 630 596 616 668 640 580 634 579 
583 585 643 569 639 635 598 633 635 640 621 621 610 641 663 638 639 638 603 613 607 654 645 640 634 606 576 638 629 621 660 618 611 622 630 627 628 650 608 599 
574 631 599 663 609 592 618 643 653 642 613 641 623 606 649 628 627 598 623 657 641 594 611 660 659 624 705 600 680 645 656 602 647 629 615 665 602 632 613 601 
613 589 618 605 579 576 659 636 618 655 625 612 617 639 651 623 664 582 611 615 606 646 620 644 580 647 616 644 658 657 615 620 641 641 641 624 615 652 636 578 
651 646 607 628 619 617 627 644 596 610 589 602 657 643 616 602 594 613 644 639 629 588 623 605 547 641 602 616 601 627 674 613 620 636 656 624 632 632 675 597 
609 609 619 646 590 597 652 637 583 599 655 605 623 612 614 640 667 640 645 633 638 658 645 644 620 612 580 609 641 641 637 646 627 593 641 596 624 598 607 634 
606 579 634 654 567 662 616 653 613 618 605 660 599 683 652 605 598 640 647 630 624 668 617 608 591 643 607 632 659 640 633 649 641 623 642 645 673 658 657 647 
631 602 610 608 649 587 565 645 632 611 639 629 605 615 581 620 614 667 658 627 627 604 621 638 615 603 616 583 588 637 592 609 598 633 632 611 638 601 618 538 
637 630 628 637 640 667 593 624 636 634 632 631 629 692 613 639 628 647 611 604 648 624 632 650 620 617 598 612 638 620 632 648 621 612 621 606 650 617 613 591 
611 626 661 626 655 614 627 624 648 608 657 637 571 666 635 632 604 603 615 600 614 553 618 662 621 645 652 605 645 612 600 671 627 601 624 688 637 588 651 558 
623 626 610 637 656 613 611 613 654 653 647 603 662 604 679 595 669 594 634 627 548 594 654 639 609 612 631 660 633 614 619 658 591 630 628 656 621 631 579 613 
600 637 610 609 613 642 617 604 629 625 618 607 637 649 583 598 607 632 563 604 630 589 653 642 653 653 646 561 585 629 664 636 640 636 652 652 628 666 621 592 
607 603 603 609 676 596 677 618 575 723 639 637 640 633 621 627 653 596 607 606 614 616 652 591 627 635 606 662 616 605 655 606 636 596 644 645 572 590 575 586 
657 631 633 630 617 600 629 609 614 607 597 634 628 611 666 676 631 669 646 648 672 597 585 636 658 654 613 623 626 631 636 624 588 632 658 634 608 664 604 618 
597 646 583 608 640 639 642 608 640 600 631 594 634 576 656 553 638 636 617 648 597 678 626 638 597 642 600 592 591 641 577 635 605 633 639 645 596 616 652 614 
627 621 621 587 602 635 634 633 646 624 647 645 592 624 636 645 613 646 630 618 639 655 625 620 619 636 618 648 585 652 650 630 641 605 586 606 632 612 670 641 
612 669 613 639 675 646 638 652 651 608 646 615 627 591 655 649 606 642 612 627 640 627 630 607 631 640 697 628 626 562 627 641 628 621 633 567 603 627 636 664 
582 661 591 582 630 579 607 602 627 649 616 665 657 616 603 702 586 641 602 603 630 636 622 651 595 596 620 614 664 621 660 654 634 619 633 623 638 596 646 671 
628 600 634 613 620 602 601 619 629 634 617 605 605 640 626 658 648 621 628 599 617 671 635 590 646 593 625 663 640 624 635 659 636 620 660 633 631 606 589 648 
621 601 637 657 628 622 639 657 648 586 619 626 557 597 641 613 633 647 628 658 629 630 696 650 655 629 556 636 672 615 650 587 654 635 592 633 617 610 645 602 
613 666 626 629 605 658 595 637 626 612 578 639 621 623 615 608 627 626 616 633 608 630 592 609 664 656 610 614 636 605 645 596 598 639 635 613 668 646 616 646 
629 663 630 618 632 641 629 614 636 674 607 623 587 629 635 669 634 626 625 599 659 596 637 651 642 577 613 652 637 590 633 567 605 632 627 614 610 636 641 622 
632 641 641 605 629 629 634 623 634 592 625 665 628 628 621 643 578 603 643 630 635 614 600 627 636 610 655 652 563 690 599 599 582 644 630 648 618 647 597 640 
584 591 658 574 618 621 616 616 684 604 596 627 705 613 615 659 621 607 626 668 631 620 606 601 637 626 627 629 620 605 637 661 608 620 590 640 609 639 640 613 
577 693 653 616 661 639 630 629 646 562 638 630 634 611 609 645 630 616 648 574 621 670 614 622 628 655 603 622 583 668 620 602 661 670 636 640 632 656 631 597 
613 613 617 653 639 633 651 620 602 625 606 589 636 631 632 628 683 618 653 627 649 663 655 669 610 617 651 635 587 638 619 604 617 658 652 629 649 612 613 658 
598 629 625 679 674 666 602 607 598 623 606 634 625 627 579 585 647 637 640 621 621 646 640 627 633 648 631 617 618 645 659 611 621 592 676 629 610 618 578 615 
625 605 618 656 612 599 606 646 623 647 584 597 605 577 649 590 670 627 635 592 598 640 663 610 614 629 593 599 660 647 617 619 595 683 625 667 613 604 592 613 
602 612 636 671 621 665 638 640 661 643 610 634 628 636 653 605 626 657 651 617 616 629 603 647 605 650 651 633 678 655 609 594 571 591 637 630 623 607 643 617 
655 562 655 648 595 618 652 661 631 632 645 592 611 606 614 596 572 614 633 627 603 642 645 597 616 601 597 590 632 623 631 655 641 675 620 638 617 615 652 614 
601 617 651 635 577 647 635 604 636 643 687 657 648 649 592 626 584 657 614 658 574 640 655 647 623 591 616 593 653 675 588 642 649 635 644 665 608 625 582 654 
610 588 650 643 595 616 609 591 617 594 604 617 612 584 645 663 615 620 636 681 597 661 595 626 632 634 624 654 657 660 586 561 666 639 629 606 649 638 639 623 
616 599 604 618 599 581 645 642 613 632 584 644 669 607 611 565 612 673 618 618 655 662 656 615 607 592 574 611 658 620 635 643 665 591 672 651 603 655 591 601 
584 548 607 619 608 628 621 608 634 599 641 632 590 600 617 611 595 608 637 620 598 643 585 602 620 644 644 589 617 598 661 668 643 642 594 633 658 623 621 634 
