# Format: McCode with text headers
# URL: http://www.mccode.org
# Creator: McStas 3.0-dev - Oct. 11, 2019
# Instrument: Test_Sources.instr
# Ncount: 1000000
# Trace: no
# Gravitation: no
# Seed: 44103
# Directory: Test_Sources/6
# Param: source=7
# Param: Lmin=1
# Param: Lmax=11
# Date: Sat Oct 12 09:05:18 2019 (1570863918)
# type: array_2d(40, 40)
# Source: Test_Sources (Test_Sources.instr)
# component: m3
# position: 0 0 1
# title:  Intensity Divergence Divergence Monitor (Square) per bin
# ratio: 100000/1e+06
# filename: m3_1570863917.hd_vd
# statistics: X0=0.00303323; dX=1.66021; Y0=0.000323628; dY=1.65979;
# signal: Min=2.90722e+06; Max=2.01587e+08; Mean=1.39469e+08;
# values: 2.2315e+11 4.208e+08 999957
# xvar: Ho
# yvar: Ve
# xlabel: Hor. Divergence [deg]
# ylabel: Vert. Divergence [deg]
# zvar: I
# zlabel: Signal per bin
# xylimits: -3.13106 3.12422 -3.13929 3.14318
# variables: I I_err N
# Data [m3/m3_1570863917.hd_vd] I:
5861512.211 7600337.655 11926671.83 26445969.7 25884148.91 29725765.3 19730991.44 28886459.49 25770422.97 31410480.73 19739577.87 15300780.24 19908618.65 25661595.9 29117426.26 27080084.5 24399051.05 27243509.11 23171681.69 24584401.31 22895353.68 20023192.46 22126279.31 25271719.51 30203375.24 27824779.43 23991006.74 25123354.33 22899961.75 26508225.55 24252886.9 19087158.6 25658453.39 24883204.66 30141653.6 22859744.05 24495997.11 20842977.44 15682666.55 2907222.352 
13416633.07 33137582.5 53068719.2 66769526.37 78052029.04 76119839.15 72009855.03 78492491.73 79945487.8 66082145.5 73201742.57 65755824.75 57446946.39 76842386.95 73220378.89 63226984.46 64539844.77 66097181.86 69002643.22 68268994.28 69555440.09 74547355.93 50623022.9 76786194.97 71427286.37 76701219.64 73602690.38 83424406 70925861.17 74141929.29 89322843.64 58738938.26 74565517.26 67213312.52 76937328.9 60451664.51 65460593.78 42083670.41 32221629.17 7089940.302 
19586845.98 54701159.27 83035019.18 102224681.9 108963542.1 104781215.1 131861556.5 121552795 120547318.6 123753003.7 116833473.1 116350660.4 108471754.3 116007363.8 128134238.4 122294635.2 122128697.6 102081169.8 98531841.67 104062629.7 121109698.2 120114826.1 106779582 97322065.23 121811785.3 115965806.4 124985130 124385440.7 119383846.3 122053517 126651934.5 118423443.5 110713711 121079837.5 130178450 113437301.6 96910958.23 73847634.47 49493636.15 19141050.16 
17748150.76 82428592.34 113080070.4 145904688.7 151849377.6 163102498.5 155341205.4 166774171.7 144000181.3 160524670.9 191228868.4 136631765.4 151122321.2 161153608.1 163605256.7 168320065.9 145140821.3 167593933.9 140668086.5 161187018.3 180920476.5 154908374.5 150056231.3 170481086.8 165473663.3 153817498.2 175607593.1 142523302.7 154949344.4 158719547.5 151534568.5 170524531.3 167493784.2 167059621.6 145923503.5 177728808.1 150497995.3 107010873 81940478.91 30038518.61 
30942281.36 81240997.55 114709401.1 175031321.9 153492370.2 192060766.7 154630591.2 159286465.6 158577658.3 159818328.7 161380363.6 149381567.6 155360986.6 183968202.2 166520746.5 150685554.3 172292979.8 196238035.4 165153887.6 170010857.3 172408095.8 162429869.6 169862024.1 165436156.2 164749679.4 191378851.4 167788129 178528916.7 165061380.1 160593521.4 172480422.5 160802251.1 174855829 172593240.2 161813692.6 193488373.9 169002896.7 117756982.1 79402916.92 32257511.2 
28807312.94 78165690.3 123280231.1 164115716.3 152296991.1 156838269.2 153056623.7 174933935.5 145267048.9 162599401.2 167558336 178524079.8 168244598.9 166072489.2 160561601.3 181552385.8 181801850.5 163181991.5 181786081.8 160903527 162831789.7 166761750.8 159594115.2 161671399.8 152696777.4 154296929.6 168281584.1 157168911.2 156685349.9 178464768.2 148325123.9 158311111.6 181349433.4 148627662.7 170628508.6 147574095.4 154035524.2 120211991.7 84303943.64 29566757.05 
33040508.86 76261174.81 147463732.1 160532109.1 187999469.8 176069984.4 175140572.7 150407040 149379732.3 180273311 198731786.5 163907701.6 159380185.8 152391569.8 174531068.8 161001916.6 164247577.1 171151000.2 169731587.2 170153747.7 166697664.5 180812929.7 163141383.8 142671545.1 168381721.7 149670960.6 166738049.2 160038270.8 168442919.6 177666289.7 182299942.3 187760881.3 170780351 183065496.6 164545798.3 192315410.6 168962822.2 119818171.1 75592568.49 30033577.36 
29761025.98 66350984.17 111810923.5 161801409.4 169733947.3 165626693.8 184833151.4 175937818.9 159141765.5 181922561.5 168193251.8 183483960 165469981.9 181284142.2 168806698.8 174979079.7 174500744.6 162702414 160749754.5 171798021.6 171856088.8 158736400.8 167823986.6 181370866.7 172691268.8 160835803.2 155650730.8 189720054.9 190792430.6 171501879.3 164756804 167805957.1 175121504.1 155925706.4 177949747.9 170088639.4 149273534.9 112002674.3 73363164.39 32078997.48 
27412357.66 78247856.19 115554889.2 145885157.8 164162459.2 164901905.6 152761805.9 187055685.3 181140841.1 169298454.8 170885605.8 168246632.6 152177130 198521374.8 148767431.3 161098626.5 146723545.8 154257957.3 156179665.1 174997005.6 153442760 178384038.9 199271631.8 161821398.9 186651246.4 159663860.4 176432089 154804942.6 164527750.9 174563269.2 162562176 168205000.8 155790162.7 173063271 166365953.4 173783558.2 158892821 109193995.5 75119207.29 22138649.48 
19010865.85 83108500.32 113124837.6 171509624.8 170454927.4 179322090 174533876.2 175694494.9 170317367.7 161694683.1 173112354.5 156601450.3 160650744.9 177791265.8 167374046.5 166933366.8 171000016.2 181575702.5 168374753 154546440.3 165902501.5 175973459.1 171157082.5 167753313 174839124.5 181202515.8 170589561.2 165846490.4 171344631.5 174249827.3 178070770.5 148984701.4 171904124.5 173237836.2 157553825.1 161950313 150968268 112204010 76565570.13 26778427.08 
32977246.83 65276180.29 117849149.4 146679052 173038424.9 157884515.6 161299900.4 156527138.5 165257771.9 167403766.8 169605612 168480622.7 164542579.2 169194921.5 186697964.6 167760673.9 165053382.8 156569862.6 156655156.3 154549513.2 174696108.4 144155892.2 167982338.3 158845908.9 162505097.8 156646362.5 171235370.5 162865049.9 175984904.2 172260270.2 182465697.9 160041262.4 161035526 158839017.6 164812057.8 163484939.2 173840151.2 116433408.9 74814839.32 36465082.81 
23000643.17 66109343.86 104204683.7 146431665.6 159321460.1 178255372 153297833.4 160225225.9 166038929.6 161377174.1 149630430.9 174226224.7 157122905.2 167879304.8 159491367.2 160790385.4 174709096.5 147111243.1 174823094.7 184747683.7 157073576 155387428 171332595 168134670 165807932.7 172072865.1 162807122.6 157117961.1 183582415.4 184563914 161291223.7 183854818.7 179527325.7 174055580.3 177367695.3 148055568.7 164207164.2 132803180.7 72542507.76 30782007.8 
26820035.2 78291933.33 108019681.4 138564740.3 173739174.5 162053922.9 155589194.7 149768469.3 173378907.4 158157403.9 157036971 152510295.9 176370823.8 167852814.8 148359668.8 163449099.9 191935374.1 184244892 169856314.4 172927573.1 172683573.2 172441095.6 173116692.9 174613920.9 172057578.2 159655563.8 154485808.3 156795434.7 151157182.7 172671361 179368237.6 152122983.4 179283794.8 173667347.6 178288313.8 158558877.6 171356148.8 123633854.6 85334213.39 27902919.24 
26777598.72 83163167.4 135088898.7 180558872.2 196053754.5 167718984.1 177196870.8 178657757.2 162773233.2 155858753 151194277.5 151316500.9 183067167.1 153606223.3 158469227.5 174373170.8 167692005.8 177461816.1 155560491.4 171106160.3 176658787.2 163283763.6 164348532 166707160.2 149975625.4 166966650.7 159871803.4 166598542.2 158282683.6 160197262.1 145094835.3 162108550.9 159136080.3 180100472.5 152148884.1 159672257.4 165147638.5 105789366.2 70236178.75 33267672.48 
22035661.89 70313818.29 121568812.5 179533929 174085054.6 159032246.5 157233691.1 165892157 172925814 174592239.2 166788579.3 175492599.1 179580619.9 155265301.8 158089354.9 162063567.2 184062986.2 178593249.8 182171017.7 150015721.4 167284576.5 165156735.8 161961540.5 163431211.1 174564950.2 171976080.7 155923694.7 175893614.1 173845101.5 183176987.3 144276569.9 172793971.4 147536321.3 158579356.3 154976491.2 171192901 149903673.3 119166909.3 68600586.49 24440893.76 
24875090.63 86376289.37 113288455.1 160527273.3 162289636.5 171231434.4 160156265.1 166058394.8 169995108.7 178472226.1 191047152.1 141660813.4 169104113.6 175841824.1 193631841.1 143518979.5 149214321.1 168124090.8 172047464.7 161911763.4 180556730.2 161991290.9 173267801.3 152528005.5 171417454.1 152500986 156469744 159393215.9 156330198.9 187501461.5 159269507 185543707.1 175461219.2 169218466.6 151699155 163052335.5 147080116.7 104800917.9 79844775.26 29232845.61 
27676911.21 78684247.89 118321350.5 162679367.8 169946817.7 165626121.8 179640321.3 162253776.7 164347995.3 169026028.6 156687655.7 179043866 171448946.9 148418812.8 168168972.2 166071550 153883571.4 170842693.3 156581658.8 180362219.2 169443916.2 152178719.8 162383378.4 160717171.4 163542149 175121936.5 165803339.7 158822477.8 172405200.1 168452842.2 156407016.1 178337920.3 153632853.6 145397187.3 175825508.7 172628107.3 176412914.9 134958856.1 85768697.42 22257344.98 
23817207.17 71278437.72 109797074.3 178267534.8 156005620.3 165126077.3 164866996.5 174782716.8 165991271.4 178679775.9 159200454.4 165889373.7 163340907.4 172255810.7 170067063.7 156901901.8 166709237.8 166536166.5 165810416.1 142953862.7 194289780.8 173285290.8 156130018.2 152887148.5 174438593.3 161313570.3 168007350.6 181288354.2 161310253.5 162176783.8 194751201.5 162626742.7 185906658.5 169297821.9 180701414.8 169090245.2 161365458.4 109342697.9 71098182.16 29293226.31 
16473163.42 71602547.86 112675146.6 145394206.8 162792901.7 161530669.6 176702135.2 158834779.4 187481899.5 184890091.2 169611114.7 155556073 178417026.8 179313479.6 157029082.4 171370996.8 174331245.3 168525846.3 171816991.1 175123714.3 163872278.5 185151034.8 170681730.4 187121852.6 163047883.4 164549050.3 176273776.3 168737332.7 168565181.4 168253467.8 161569635.7 174817380.1 147389698 179817562.7 162724311.5 160744969 157013403.5 115090477.3 83739166.95 23115609.34 
40743866.52 76504460.8 116605003.6 152417849.7 172935350.4 161458322 151904718 147553623.8 156208751.3 162826023.4 161265808.5 170265823.6 180711336.9 187812392.9 184534975 181199331.9 163977313.5 166577372.3 191693304.6 174479979 168295134.7 163760157.6 162896340.5 179860139 165730898 158979109.2 191491255 167466243.7 183450451.6 146665904.2 164439210.5 150448881.9 177129911.1 148247316.1 174265490.8 175373903.2 156436526.6 114912733.4 75528465.84 23413554.09 
33493222.22 72454869.16 115495426.3 163310720.5 160410349.8 181807328.4 184392348.8 173026254.8 153906222.8 161889922.4 161364738.6 177947124.4 170749804.8 173074669.3 159490928.6 160603833.8 166527970.9 169955908.2 175763009.9 192138058.2 184489104.2 164701882.4 166033586.9 160561434.1 168133338.1 153578957.5 168536927 155662018.1 176036484.8 173629636.2 180747590.5 161846692.2 174407060.9 183302020.9 169157863.6 163652172.8 156782598.7 131177399.4 86055712.86 32228137.53 
22274523.67 80598869.06 126139626.6 168274796.7 173060664 158068588.4 177425208.9 164121191 176872047.5 163629322 158476548.3 168000672.5 168093708.5 159502966.5 173323532.9 187736580.1 150430000.8 162338152.2 177882502.7 174143454.9 155639796.1 181261894.4 153420475.6 195945671.9 181545056.4 158470787.7 168700767.3 170176827.9 187368694.2 184458600.7 156121298.4 154201190.9 189026832.7 171406509.3 162277022.8 139318110.7 156162852.8 126465257.2 93396747.42 19407872.47 
26009009.52 66775615.01 115209540.8 170577551.5 161930279 186406047.6 163755440.8 157831936.4 152261162.6 171502171.3 159280441.8 179541041.7 167042713.8 164177013.1 186580048.8 166828255 166733016 160953642.5 188002918.4 158420915 157797827.5 185845523.7 174915503.2 176564607.5 153605782.9 169510240.7 178497016.3 176237079 174582778.6 155489242.9 156349975.2 172546714.8 162220261 167623314.8 172985260.3 166575671.6 166148579.9 111826898.1 85815224.03 33946432.77 
23815399.49 67445329.58 122792822.6 147790095.2 169739867.8 165110562.4 152543544.6 173634079.3 162501144.7 182913254.1 171747862.7 166435503.4 163888063.4 177367267.4 184464522.3 174313243.9 179257470.9 167836360.2 165621449.6 164095737.3 144391863.8 190087708.8 143170151.8 182860085.8 162482188.4 182949766.3 170656241.7 160116299 160701411.1 172671144.2 176686201.1 163487250.1 154071602.2 171958239.2 176016813.5 182876026.6 171994052.2 118385031.9 73961579.8 20830092.98 
24069708.76 70096224.23 121757901.6 164848195.5 174998718.5 176658668 167055636.7 162888420.6 151596262.2 170643576 169462487.2 174160654.5 168062390.8 176367733.9 165485227.7 160757969.1 184924938.7 196699088.6 170076339.2 158115247.1 158056536.4 174350162.9 189400648.7 173404915.1 163218943.1 156881499.6 158568872.7 156477578.5 191636416 175603799.7 167618268.6 169986053.6 155013008.2 146758554.6 155516500 151335223.3 156946745.5 118785558.2 70078928.93 27094443.19 
26638574.14 87582455.12 107981204.7 158166479.6 154278020 162511400.6 170922580.6 159741781.7 195064747 159067137.5 145416037.7 155109716.8 183867119.7 164664105.3 177217924.6 173879765.4 170024566.1 163364021.2 152350192.8 157449643.1 179372850.1 151353620.6 182802837.4 172282966.2 185408636 173669795.3 166422163.5 157530628.2 175180094.8 157246528.2 155473396.1 160176629.8 174536110.7 164900040.7 171995945.3 161777298.8 152402711 120387513 78196376.62 26101870.07 
28467982.37 72462645.91 126554726.4 157267480.3 156848473.7 165939325.7 166649370.7 160870135.1 193305913.1 151839173.7 148520147.9 169640216.2 171570540.4 159889486.7 179021469.8 172777075.1 158322346.9 170711789.4 174693653.7 169312025.4 169509509.2 161127451.4 188349852.7 155318560.5 164374283.6 164787500.9 166040939.9 187980894.1 167935384.7 179001441.7 175421278.6 181770501.6 174642071.6 166747981.2 172751649.6 172964524.6 192240839.5 126114166.8 69954608.06 39231345.33 
33916529.43 77719889.5 99810974.29 160737108.9 162787858.6 158943364.8 162390721 172887956.5 160649559.4 162369507.3 162177072.8 161621036.3 163471153.5 179256534 176882995 177735616.6 155035968 167965828 178179151.8 158929169.8 181681534.5 146056081 166140208.1 154681912 181508842.2 153923369.5 159191885.6 173910467.7 168120030.3 155221233.1 159898627.4 171285901.4 166115368.5 166263836.7 158513707.3 189129431.3 177961947.8 118456812.7 77356108.69 30230478.19 
26005862.91 71860815.98 126014526.2 181815377.7 172244002.6 173808100.4 168872592.4 175322309.3 172681574.7 169750577 172476524 154576360.5 163563366.6 170805269.1 157983163 162668596.3 180178339 166658272 165180314.4 163286576.9 171868267.6 163163963.3 165602735.1 151142914.1 190471348 150451274.3 163856271.8 155560820.7 145610655.9 167299738.4 155224282.2 172763243.2 163074472.1 163038958 160441976.1 165334787.9 159908728.9 122467163.6 70953247.17 29961177.67 
38937874.34 87496845.52 122350058.1 156672976.4 174831942.5 172393144.6 163856643.2 177308057.2 155672456.2 164022420.4 165775707.7 159513648 154997887 167389188.6 152278534.2 155592637.5 136342319.5 168777714.8 169339542.9 150297869 156218559 152080182.1 178760474.1 168817796.2 176249037 155135323.2 160276706.2 178345057.7 173919627.1 180793832.3 160886779.6 176979802.6 154402033.5 181249410.7 176848011.9 186788897.3 172799577.6 122673708.9 68861433.46 22737871.34 
24006771.79 66234284.73 130428211.2 150413743.2 160002395.2 190981621.8 171601415.8 161789199 161631678.3 166303308.2 175081684.6 164091050.5 159454017.3 167100936.6 153310819.2 177608359.4 158939556.1 163548172.1 180487844 158260847.3 192453771.8 170416598 171130394.9 145179930.2 162349060.9 182815890.6 182026329.3 182946905.1 146411404.3 172614620.9 172160593.6 150877183.4 166932522.2 169668458.2 144209517.9 178261941.2 144838556.8 109227399.3 69966151.98 29822652.33 
30347068.54 69039827.32 112501097.1 165170479.1 148466133.6 176244231.5 188123367 164393033.5 167536314.3 138855163.7 155779988.5 178031119.8 136071176.2 180561917.9 170225158 182418149.2 165338556.6 169530931.2 175642959 155617042.5 171810972.6 155801071.4 167634462.4 154962168.5 176194268 164193775 164880809.3 161591932.9 166395060.5 175425494.6 182602751.8 170420179 168544624.5 170691338.8 162447844.5 168082198.3 162860112.3 150436375.1 80277586.56 26595200.07 
17209619.7 75297898.99 112497359.6 157113802.9 176180777.3 174316109.9 172695661.6 171053819.6 179103267.1 147598315.5 175143681.6 169941891.2 155558912.4 144244170.7 169198219.4 161063805.6 169214619.7 162207371.2 191271292.7 198165308.8 168072181 172261879 183101019.9 158951835.1 163627889 165740646.8 157717825.3 165055597.2 175948008.7 173456066.8 170068968.2 173469440.2 158224468.2 166544194.8 152244288.4 177857996 157391545.8 121615838.2 60645896.08 25587341.69 
35620944.07 81588575.75 100134131 163176113.9 165368797.3 151890099.6 169239431.6 145252578.8 164022428.1 164192341.9 184327867.6 166955602.8 176427343 154985847.9 174318108.9 159516841 158436818.2 167314845.3 180745300.8 148622176.8 158984323.7 178525288.9 167342220.4 182381159.1 144279493.5 154706308.1 172797210.8 196896229.7 182818623.6 159259188 163784076.3 172056397.1 175355727.4 184718407.5 156689946.7 162503106.5 142612578.5 143014542.8 74498515.18 21601973.33 
25296075.75 64320568.13 112219212.2 156463822.7 160502636 198694617.9 168377117.7 166701925.9 164134300.8 161444014.7 172132705.4 153328715.9 150013736.2 180455438.5 170207667.9 166066174.6 157178741 170821722.2 165393578.4 169861285.1 165686291.3 158796946.3 166199561.6 163783578.9 201586863 166322127.2 149535634.6 178522010.5 158832375.1 166237805.7 172729217.3 163868470.7 177979676.4 177974291.2 156873302.8 146921722.3 164464259.7 120453344.6 69293480.45 27928066.23 
26755623.07 66061046.36 110093247.8 167112717.5 190480738.2 163712224.1 150589136.6 143585603.1 167369044.5 177459937.3 171577894.2 170371474.4 174984439.5 181899612.8 161338389.5 178388943.8 156290451.7 167095340.6 177223580.1 152127160.4 170110768.7 177498319 147165356.1 173410319.9 176562910.5 166704333 159201674 170699689.9 183189455.3 181826210.1 163193931.1 158496645.3 166081674.1 167828512.8 180647665.5 140254761.6 164676075.3 131812326.5 96477196.94 31447950.81 
16694562.75 75657036.38 92661243.21 147771770.1 180453016.7 143514312 159897788.1 165999591.6 182871755.8 157421269.1 165878682.5 133547041.8 157560985.3 160725823.2 134361359.7 143315479.6 143050860 161495371.6 176358213.5 158607219.8 183022371.4 147271432.2 168769900.2 148555778.6 156694795.6 160474258.7 141953824.6 158923519.1 147157754.6 178262082.7 158022302.8 166245986.2 147629610.5 157665336.6 157102451.8 183783849.7 161761280.2 120263021.3 70797445.83 27591985.4 
13568339.23 50622514.45 72392391.19 115614990.4 119684554.3 126622000.9 126503934 106444683.3 123848742.5 109897500.1 101213610.7 101839809 119373329.4 98244958.41 97923409.88 110502920.1 101869130.3 116887064.2 124573995.1 122368412.3 115083739.4 111136746.2 120724429.4 88438094.03 109100760 107097838.7 118649150.5 127106236.4 114816690 112177877.7 129284737.9 126392849.7 132376004.4 131107097.4 107527889.2 111219864.1 111855486.3 82938615.37 70250951.05 17582328.27 
11485325.68 36659836.34 41647259.25 78220116.27 70278991.42 56333713.96 70813137.17 49581198.97 72175071.96 80384377.7 60020438.31 70746645.37 64693067.95 59782117.34 73447596.82 64477914.5 66346646.58 61922867.08 66489731.61 71087507.24 78998643.78 70799535.37 73840674.82 71271068.98 67765834.72 71905330.43 75508207.47 72426214.73 58729992.41 77841071.81 81089374.71 66817917.16 67988457.26 88493685.47 71163260.71 69336995.66 67999434.08 50710438.02 34061419 9519086.199 
3954604.584 13905444.07 16669207.1 19849859.45 23460275.81 30566178.88 27796854.67 21684334.28 25107496.55 30648847.53 21906304.47 28070655.22 24040367.63 24309906.16 20096618.06 25133359.62 18613320.88 22446595.05 26992700.26 21240565.91 25241202.52 26561627.17 19757392.56 20218558.15 26490539.5 22794162.05 21094940.42 23952198.9 31472722.54 27118747.59 34899913.15 25158612.6 23662919.49 20500761.09 30174797.48 32121095.43 23531333.85 18539937.71 14789089.03 3131180.973 
# Errors [m3/m3_1570863917.hd_vd] I_err:
2187086.212 2137359.847 2789260.754 4590571.632 4141764.871 5047378.631 3911425.903 4999741.471 3717569.062 5311934.466 3600365.797 3141149.17 4400386.795 5015605.187 4599059.198 4474408.356 3832913.579 4646294.795 4293745.046 4034506.041 4188990.263 3682516.862 4402772.138 4082220.42 5036415.508 4806903.506 4098527.824 4231907.591 4057699.817 4434986.219 4374811.404 3753316.539 4266424.953 4492677.353 5197590.967 4327061.36 4197997.218 4224181.356 4352774.037 1108119.44 
3236416.07 5214781.859 6362602.186 7211877.886 7920174.46 8014513.841 7797614.778 7916038.339 7683483.479 6886151.365 7377560.605 7221085.26 6315283.36 8129205.458 7106858.061 7259594.445 7321222.186 7100313.088 7458760.112 7483251.402 7580415.277 7716950.302 6158304.659 7955451.401 7588846.975 7761565.13 7636454.332 8710686.471 7729596.098 7569706.03 8785553.499 6546423.577 8302993.995 7190195.109 8046669.634 6683318.766 7117126.496 5283269.082 5127663.55 1702925.17 
3946420.941 6631240.469 8163221.649 8885036.2 9304262.15 8655401.397 10491424.06 9679810.526 10394922.99 10055538.57 9584073.571 9225773.576 8897819.706 9168083.735 10220675.26 9781862.978 10159747.55 8738771.429 8720910.479 8776114.894 9689468.937 9799712.477 8906069.656 8463160.92 9778220.744 9569700.968 10064804.25 9556766.739 9308571.082 9397591.987 9777332.145 9773526.676 9337225.714 10191267.72 10106563.26 9532930.623 8128943.961 7380588.608 6528490.665 3718240.829 
3151552.099 8158053.916 9566075.816 10615431.67 11111677.12 11686260.55 11141768.13 11705730.04 10160232.3 11727124.45 12677895.25 10571292.79 10750257.46 11322791.51 11105326.62 11614228.79 10261590.51 12056513.7 10622004.28 11532830.65 12090127.72 10882393.99 10405335.31 11964847.84 11693577.18 11315247.33 12026349.72 10271451.2 10811012.32 11089498.39 10876412.88 11713689.77 11964038.41 11446460.7 10468235.86 12164358.83 10873724.25 8576389.968 8433674.926 4590884.905 
4951571.84 8290918.141 9114958.855 12148696.04 11033222.99 12838547.07 10607691.76 10918117.21 11224841.49 11190469.7 11179084.11 10496433.26 10676905.52 12244244.11 11166276.85 10892179.09 12027263.53 12888115.79 11333843.43 11468373.26 11662862.16 11066896.44 11740475.07 11589191.5 11007790.95 12900525.59 11387660.1 12171835.05 11690586.81 11577709.07 11495584.57 11170119.54 12239411.21 11629598.05 11243481.34 12672942.67 11586225.7 9403286.356 8205327.068 5531679.021 
4589544.686 7864881.585 9861097.374 11454940.31 10528199.83 11008838.27 10901966.18 11680376.05 10339016.22 11179815.62 11388022.6 12101720.59 11522430.48 11398782.61 11353596.92 12292863.18 12014705.81 11236743.69 12437872.92 11458212.16 11366397.11 11311412.47 10995331.29 11604721.77 10819907.69 10601283.79 11424318.28 10844832.99 10962471.68 12387273.79 10063696.47 11073318.79 11947611.7 10617092.16 11383400.75 10581113.22 10834698.75 9784577.631 8403152.761 4866825.879 
5056747.369 7905367.432 11188989.65 11648447.36 12327637.2 11916842.71 12168572.29 10400832.25 10490689.97 11951975.51 12767226.15 10964705.2 10985450.9 10443479.75 11828432.8 10823546.74 11567891.15 11559060.28 11662371.58 11943660.07 11550447.32 12110888.04 11446914.9 9993980.626 11633307.44 10527584.04 11367700.45 11047016.33 11593654.87 12115500.24 11998049.55 12525732.35 11424853.04 12106454.06 11551250.55 12892582.85 11756829.83 9375621.832 7441922.081 4836844.978 
5069092.159 7140880.297 9556319.501 11107391.46 11439845.88 11297243.72 12639682.41 12160901.96 10963799.42 12259328.46 11715713.3 12402341.65 11846407.29 12352469.83 11375713.31 12034713.55 12207326.44 11177586.5 11367103.29 11619319.13 11835833.24 10886664.45 11546082.98 12186957.91 12183645.34 11062552.18 10766978.75 12827799.16 13194648.97 11777199.74 11141541.57 11166753.77 12230204.94 11196626.88 12119701.94 11425523.64 10891444.94 9112089.511 7011678.865 4980278.037 
4899004.724 7810434.773 9761810.435 10477690.16 11185315.2 11558827.03 10708690.34 12325403.56 12312998.18 11975140.76 11792455.18 11301396.13 10414327.72 12740876.92 10761852.24 11287996.79 10664332.26 11042107.06 10961370.43 11708920 10804190.99 11824448.88 12957654.86 11112739.59 12611743.09 11386549.67 12339237.71 10791868 11061247.47 12128317.58 11064216.6 11764671.93 10719874.92 12383226.83 11506646.22 12024630.35 11552285.43 9519292.882 8158292.09 3885574.028 
3858989.602 8125357.655 9359092.435 11554781.25 11422986.21 12154167.93 11996644.7 11952062.21 12216087.74 11449570.87 11747178.58 10716635 11230545.03 12033461.31 11152385.94 11267637.62 11940310.5 11921367.94 11446984.47 11017495.26 11626681.59 12252551.29 11960892.11 11745475.34 11884979.75 11832829.41 11941953.23 10977568.34 11904232.19 11770010.56 12192070.18 11105429.57 11500062.34 11685902.74 10774038.41 11198954.74 10816088.78 9388907.74 8049827.853 4324422.742 
5357251.898 7126816.288 10215521.73 10809417.27 11845293.77 11557705.05 11242749.54 10752219.36 11456491.81 11748885.94 12118795 11368113.29 11670890.05 11306610.33 12643670.63 11641116.74 11352741.55 10955962.46 11155279.25 11126571.89 12094597.69 10239930.92 11424652.06 11255756.16 11422270.49 10880643.59 11651042.68 11200039.9 12295479.47 11758209.35 12365933.15 11084471.52 11031684.55 10864610.61 11028932.97 11479134.35 12128610.93 9594855.609 7734479.27 5538834.803 
3875077.362 6475603.286 8875495.824 10858532.12 11128703.67 12415741.97 10828309.78 11041882.55 11624967.39 11230570.51 10624905.84 12039648.31 10391149.18 11602958.16 10922079.11 11744679.22 11818890.16 10465235.02 11776752.14 12591472.45 11026178.22 10810968.43 11422717.81 11596275.61 11497303.34 11641962.23 11385922.33 11149175.46 12020283.88 12289390.21 11108321.97 11962155.92 12282300.09 11655767.19 12167668.36 10484504.91 11442881.98 10725930.17 7344425.116 5090000.671 
4809821.541 8255185.405 9061300.091 10087094.32 11860977.23 11230350.59 11003454.36 10494339.57 11705607.68 11372272.3 10829425.81 10564873.56 12000550.73 11360753.89 10317729.72 11209699.89 12980737.19 12650510.79 11630771.79 11660147.37 11834629.12 11397099.99 11948121.14 11836718.43 12150365.52 11134053.5 10811935.14 11013950.66 11011896.38 11948352.51 12180277.29 10899923.12 12324753.48 11690571.14 11539743.32 11134334.78 11700041.83 10080319.16 8716083.319 4615588.735 
4651204.867 8376710.714 10497886.42 12444289.07 13068879.68 11561097.19 11830639.81 12089380.42 11254968.09 11551429.93 10651034.81 10671809.04 12140366.22 10573995.19 10763903.49 11760349.78 11595712.45 12162979.41 10734834.21 11936374.45 12284053.27 11291247.5 11210350.58 11644095.96 10577263.89 11421453.79 11271584.75 11498013.06 11237235.81 10677026.93 10423324.01 11574093.6 11151583.89 12032719.53 10967208.03 10742597.33 11460730.15 9078579.52 7394507.118 5002397.749 
3939717.746 6978636.216 9739614.591 11850311.76 11832031.8 11010885.05 11077464.07 11666094.23 11642813.77 11832109.5 11461329.59 11771949.94 12178089.14 10754547.44 11206665.05 11042419.05 12292672.26 12289177.09 12441808.07 10838926.72 11607156.82 11433493.17 11238856.63 11236453.29 11987210.73 11793407.5 10776602.89 12031907.74 12101365.01 12111764.92 9897512.575 11699730.59 10763183.86 10873790.04 10695724.43 11442775.31 10834676.82 9531815.631 7027803.178 4481295.705 
4373080.296 8325345.741 9229242.846 11350348.7 11547864.88 11910942.75 10889314.15 11737337.27 11437928.57 11935015.28 12452521.18 10300994.66 11473244.9 12568067.7 12796866.68 10569662.39 10572566.95 11321489.49 11785774.26 11432730.76 12165290.03 11208219.34 11862848.15 10849617.24 11633953.31 10999749.16 10609031.78 11296276.85 11076144.5 12841763.21 11133659.84 12802865.01 11930698.06 11373007.28 10695583.27 11384997.83 10838561.92 8769886.991 8160376.87 4588692.113 
4399763.044 7731280.771 9941267.041 11303593.73 11485486.24 11645913.44 12141935.97 11280220.46 11239817.93 11547841.21 10469093.02 12062194.78 11429468.55 10904449.47 11138730.52 11563460.4 10568832.01 12064198.88 10736891.89 11605029.33 11649643.39 10691242.98 11350301.25 11227657.23 11395368.54 11799446.1 11822163.53 11048888.32 11974258.24 11968017.47 11214704.67 11793484.73 10678060.46 10350958.63 11645800 11857341.17 11842267.12 10448238.42 8360954.687 3566510.34 
3929561.42 7845128.94 9369599.322 12163113.21 11196403.75 11317354.57 11106801.04 11972160.94 11146019.98 12165499.97 11145686.04 11815038.02 11202942.13 11938969.77 11528486.48 11054204.8 11723087.93 11395693.45 11480222.88 10675396.04 13093071.72 11990906.29 11387906.6 10628096.76 11912773.31 11202879.21 11856476.13 12400333.76 10732846.07 11074600.95 13029819.35 10798766.55 12375719.4 11875854.08 12022440.77 11456741.93 11137650.56 9336952.426 7138027.218 4944039.927 
3209567.685 7478543.984 8969531.377 10664764.9 11467774.93 11011662.32 12232842.77 11459533.97 12972554.11 12430999.42 11346745 11105035.26 11896393.08 11943296.37 10675737.32 11669282.78 12113719.45 11728648.81 11965706.67 11865092.22 11618991.2 12628730.31 11973415.79 12585556.37 11249578.89 11383070.57 11929849.82 11577863.16 11222320.43 11398798.05 10851860.18 11982684.47 10579402.48 12219804.22 11222251.5 11094085.9 11028627.75 9840259.457 8531585.205 3933677.839 
6377937.833 7775312.156 9891513.462 10802766.39 12225611.01 11266055.7 10810315.25 10568138.9 10919423.7 11438221.96 11084162.37 11767136.22 12003817.28 12648906.68 12204086.76 12675137.15 11527356.96 11665479.13 12810607.82 11834837.43 11483761.54 11822057.58 11383797.85 11937504.73 11269505.34 10837617.41 13041818.08 11617682.6 12119798.64 10745400.52 11152747.48 11272727.41 11366584.58 10622277.57 11565903.22 12068409.67 11502199.74 9481230.193 7560450.689 3625389.279 
5105204.64 7437126.274 9620370.366 11659412.95 11006038.3 12118598.15 12019343.95 11727575.11 10979690.38 11468612.48 11475147.27 12073781.99 11519074.2 11652647.77 10906709.59 11210525.6 11492978.25 11740658.24 11978417.73 12800720.13 11941751.3 11614244.58 11581712.29 11355703.7 11539445.13 10563344.23 11681648.2 11146950.68 12261105.79 11609472.82 12571448.68 11391237.07 11690401.1 12464931.57 11938296.05 11227738.25 10973216.13 10368248.91 8540212.48 5299108.045 
3965707.555 8226084.554 9696117.403 11532813.27 11987522.66 10335027.97 11814399.99 11620141.58 12235273.3 11135188.53 11028015.81 11378543.13 11845126.56 11134597.06 11913444.2 12668908.71 10612075.33 11288600.76 11686473.74 11571577.26 10843681.37 12190318.15 10826847.46 12945325.78 12539873.8 11243198.73 11643240.23 11222651.43 12389178.93 11992990.21 10994223.61 10610024.17 12393656.9 11669653.99 11270969.48 10421407.23 10854507.69 10640160.86 8868848.187 3573779.026 
4630171.436 7064230.94 9454855.037 11860092.68 11357378.34 12266725.67 10839020.01 11377657.14 10931886.14 11205641.73 11102081.44 12447114.02 11208804.45 11517430.14 12714150 11300219.76 11310098.98 11563991.79 12782879.64 11131991.93 11356517.24 11914411.74 11672562.87 12476095.64 11148765.75 11674986.4 11976920.13 12114223.78 11748872.43 11129390.31 10711495.94 11213242.89 11557160.31 11369517.27 12149199.73 11368685.17 11560721.69 9117235.657 8641773.649 4963116.041 
4151919.541 7283211.044 9965957.769 10369718.38 11184577.65 11549969.71 10936447.02 11511072.07 11354784.3 12362413.93 11801357.4 11233783.79 11485203.45 12049378.79 12333815.42 11492602.66 11844376.8 11611798.26 11369031.73 11608808.62 10370818.78 13160345.39 10346037.7 12664881.48 11098039.02 11959379.89 11564962.53 11098039.83 11003490.98 11810148.95 11916528.98 11128219.72 10560001.92 11879614.94 12027275.83 11843754.84 11865376.77 9226446.261 7443619.889 3578307.509 
4127120.182 7600091.655 9627232.051 11627824.12 11549506.16 11388867.76 11777115.8 11423862.95 11232996.34 11751370.49 11810036.52 11709812.25 11309545.04 12275655.29 12000909.17 11291946.27 12449679.74 12771086.63 11790242.4 11013873.46 11005830.36 12274742.98 13203053.95 11879620.58 11774629.09 10781463.23 11368337.12 11069798.91 12627765.53 11774170.99 11504152.18 11912482.72 10472076.8 10649162.7 10939309.74 10437873.22 11121740.45 9633021.746 7312951.21 4182997.487 
4423327.261 8448983.384 8973178.803 11253869.37 11456596.13 11008549.36 11978607.99 11424868.62 12979673.53 11086328.17 10413112.96 10870097.26 12394726.2 11456580.78 12004690.62 11615828.65 11702521.09 11371854.79 10633375.56 10886961.43 12140066.65 10590245.48 12377291.7 11734410.7 12136339.32 11899869.75 11292863.9 11377879.05 11532047.98 11277515.5 11335063.34 11499102.93 11547134.3 11834466.64 11358392.51 11321926.86 11158120.49 9384770.24 8097620.476 4704486.471 
5106746.935 7332487.313 9752546.939 11311222.06 10832380.7 11228955.67 11543177.96 11122976.77 12468313.65 10970035.3 10534023.47 11571851.09 11872962.8 10946821.62 12169887.18 11946794.49 11053592.91 11703265.32 11745247.29 11654426.44 11674242.41 11080724.09 12342976.15 10578753.88 11990337.08 11488856.75 11494918.26 12582936.56 11478981.39 12224919.45 12122216.03 12244057.29 12098784.83 11749973.04 12092767.3 11984929.45 12838471.52 9848420.732 7534190.944 5392935.721 
5364409.908 8070761.572 7912131.515 11111740.9 11632844.36 10871286.48 11455047.2 11991560.82 11092577.28 10889691.05 10964539.91 11220407.94 11538971.78 11883274.15 11927827.48 12442559.72 10722782.07 11753695.67 11419866.81 11235650.27 11881267.64 10219417.39 10985611.82 10611620.16 12083977.1 11030414.84 11419640.34 11718285.53 11370402.03 10769881.51 11204139.43 11871590.78 11419152.44 11470820.46 11261446.62 12236199.04 11931521.75 9664199.789 8110971.632 5006568.065 
4663341.952 7521127.779 10314769.69 12365632.66 11602605.11 11858282.98 11749149.37 11178240.35 11764540.24 12002779.19 11923633.37 10808708.05 11024699.97 11667350.99 11087226.72 11189664.86 11844528.62 11361992.23 11171101.3 11236168.62 11498495.84 11337466.11 11489034.5 10586389.25 12618416.62 10523694.41 10861453.32 10617555.13 10642983.62 11785356.3 10970397.62 11690155.07 11303283.11 11040900.38 10934704.86 11400674.14 11145258.98 9991419.303 7534152.396 4793107.304 
6226512.55 8559026.58 9784609.826 11117527.19 11791230.6 11913996.08 11023963.5 11744672.17 11003219.55 11196398.2 11422959.82 11501247.48 10754025.35 11801021.68 10620947.45 10804439.06 9974750.134 11320483.05 11677925.7 10557760.45 10917559.18 10658062.05 11993032.93 11662310.71 12200107.99 10594067.11 10648351.03 12074472.65 11884070.53 11991223.38 10858797.9 12156925.29 11029010.51 12272343.24 12194084.38 12537839.91 11893356.03 9606335.079 7343538.897 3742239.923 
3978125.295 6761586.462 10464745.05 10719015.9 11220073.32 12223452.33 11688395.46 11040677.21 11495940.53 11408974.57 12169890.51 11716684.68 11022502.53 11928428.69 10362949.99 12051170.76 10684824.98 11542048.33 12700802.33 10978024.24 13003810.67 12105840.16 11795391.7 10498519.4 11375338.11 12321119.75 11967449.29 12501343.19 10617311.16 12126002.87 11434145.18 11106899.13 10995859.28 11493133.8 10470664.75 12161576.42 10655165.66 8850875.994 7313246.989 4491713.497 
5204799.153 7266898.434 9347422.844 11326063.56 10618198.63 11804507.66 12622249.97 11386713.32 11416058.1 10270451.24 10979304.46 12581991.18 9983551.789 11833538.09 11259424.01 12168880.21 11455678.22 11483408.01 11636893.34 10773578.64 11746231.77 10798486.43 11527677.41 11134084.88 11944010.28 11589086.37 11091321.85 11013175.8 10947617.46 11816265.25 12146406.09 11766810.72 12019088.34 11614379.1 11412546.92 11649860.26 11548046.66 11201418.68 7725967.977 4645717.559 
3285235.405 7697379.545 9133014.575 10955392.51 11992113.03 11836383.67 11436524.27 11806328.12 11702705.38 10803308.55 11475745.83 11459800.7 10948582.87 10452207.94 11719003.73 11244725.99 11608685.85 11000470.49 12548645.47 13035882.02 11829364.33 11463295.96 12463974.69 11085860.33 11571468.96 11197169 11002168.42 11498446.28 12345572.57 11829892.36 11448391.46 12057196.5 11487311.03 11559583.66 11015669.58 12502035.15 11042412.36 10090992.04 6475846.699 4079779.702 
5626799.295 8230154.942 8122014.644 11643679.75 11181097.2 10506962.02 11958004.81 10591382.89 11248104 11531224.82 11731741.91 11644465.01 12030796.47 11070791.1 12021573.27 10921217.93 10926881.09 11816161.08 12212407.89 10477297.2 10975747.3 12003626.9 11478163.2 12285602.19 10216806.72 10796094.46 11372875.41 13194887.92 12561712.87 11283190.66 11227491.71 12020941.56 12131854.89 12143938.89 11017109.32 11189006.66 10479752.38 11071388.43 7744789.365 3933364.73 
4683572.527 6800995.289 9244161.94 11560840.44 10929877.82 13170973.41 11492758.06 12005828.57 11487955.26 11087190.58 12116206.04 10548052.75 10496815.77 12089356.17 11749514.07 11530461.14 11337711.62 11872772.04 11364625.15 11859520.9 11771860.85 11006405.53 11995585.75 11231443.75 13255471.99 11345059.69 10879003.72 12216214.23 10884616.86 11119642.29 11879754.65 11305741.67 11902961.39 12089182.57 11086162.77 10263768.73 11245188.28 10048599.74 7550377.15 4452790.345 
4359451.205 6818616.359 8769686.168 11455403.08 12379896.91 11179431.64 10646665.31 9729288.71 11605851.81 12058257.61 11887534.8 11341862.43 11913119.9 12449468.98 10859354.18 12075198.67 11225773.13 11499520.72 12198191.89 10828613.99 12138908.92 11763646.43 10317557.81 12028159.47 11907379.95 11638662.85 11564738.65 11626023.75 12489076.17 11982832.2 11731170.44 11357755.07 11499871.16 11682625.08 11989331.49 10346403.13 11229440.25 10308972.47 9538054.645 5105553.477 
3589496.216 8307286.639 8485391.53 10705441.59 12179385.87 10246623.33 11214091.58 11670428.22 12046747.45 11542651.6 11498619.62 10074264.08 11036339.64 11540097.41 9622507.43 10513473.15 10573666.93 11682481.63 11953716.32 11346079.33 12292286.16 10576083.15 11337659.24 10730103.84 10886342.02 11273487.84 10145549.19 11036866.9 10702493.52 11978225.33 11001765.9 11370359.9 11074852.58 11557155.1 11370030.43 12292897.31 11686789.23 10010492.98 7332181.745 4180468.818 
2771316.75 6127595.373 7507104.939 9621676.806 9885366.394 10326655.03 10350388.45 9520821.372 10138664.3 9327852.308 8674300.494 8632626.023 9819280.18 8941843.711 8863205.198 9152891.804 8675990.942 9617607.52 10099008.72 10122905.8 9640299.431 9147464.789 9681988.048 8701348.21 8954374.341 9179969.329 9723136.257 10241710.19 9858770.892 9623649.842 10195886.93 9887861.677 10469604.51 10295089.79 9411198.199 9394101.102 9411573.708 8098172.83 7728683.189 3869124.062 
3219956.091 5539653.918 5962573.23 7974699.377 7805625.579 6174425.066 7340347.18 5620609.288 7631988.958 8038052.747 6699663.196 7422507.157 6880941.152 6626767.903 7745477.712 6607757.45 7111463.916 7002431.302 7078072.583 7389761.396 8235660.469 7439452.236 7611186.225 7465677.873 7331867.359 7292260.07 8047312.351 7509349.58 6928850.431 7732014.618 8352606.157 7151012.865 7021853.395 9142133.004 7793130.464 7723067.345 7537923.824 6035162.895 5853655.369 2244975.886 
1375689.28 3037166.521 3753698.694 3270744.614 4337500.972 4936796.072 4780191.766 3858573.473 4324568.895 5293822.079 3743148.033 4717582.618 4518285.536 4729591.786 3950868.662 4041046.128 4062963.966 4392629.34 4600170.321 4192239.071 4466355.701 4146872.579 3517498.392 3933928.698 4885412.187 3808786.326 3676390.14 4203560.566 4854985.095 4829626.683 5794823.558 4240433.195 4633087.001 3766251.356 5276336.845 5120703.073 4216324.311 3933936.794 3405808.88 1357222.704 
# Events [m3/m3_1570863917.hd_vd] N:
21 35 72 111 124 126 102 119 131 119 109 106 91 110 125 114 120 118 111 125 118 108 113 139 127 121 124 102 105 126 99 100 125 125 129 101 118 82 47 19 
53 134 247 312 349 317 318 308 348 299 338 322 300 285 325 286 296 290 342 311 315 352 289 335 311 335 321 329 326 349 355 275 303 342 340 318 308 217 139 53 
80 244 363 483 550 505 528 558 510 537 543 522 542 550 550 520 534 524 499 504 529 528 514 508 547 548 524 552 530 552 560 551 500 503 569 488 489 356 245 92 
113 319 515 682 683 704 703 749 707 729 760 665 686 725 760 762 707 672 690 721 763 701 719 733 698 710 727 705 724 750 681 740 701 736 704 756 696 537 332 139 
125 313 534 772 726 769 782 750 701 727 752 746 775 783 813 716 785 752 737 780 719 750 729 708 769 767 770 778 731 702 765 727 729 771 724 796 733 532 325 115 
124 305 550 718 736 719 756 772 716 740 769 739 750 769 765 777 772 730 754 729 719 753 767 738 705 745 749 718 718 721 733 750 789 727 761 703 701 537 352 128 
133 344 604 678 770 748 726 738 771 764 817 764 740 773 822 762 748 768 765 750 755 773 723 722 761 689 758 765 784 763 782 778 766 769 730 776 763 531 360 129 
105 318 533 726 711 770 743 757 767 742 769 769 719 786 716 734 704 782 693 746 758 788 753 790 756 731 723 776 766 732 721 734 718 723 793 779 705 522 366 138 
105 321 552 691 747 747 736 776 767 736 784 725 745 804 741 713 691 727 734 777 757 744 807 762 778 748 740 757 744 757 733 770 778 749 746 786 700 518 314 126 
109 337 533 719 739 745 782 764 767 782 724 739 752 720 782 792 754 776 754 711 718 757 752 734 746 772 777 762 730 733 726 687 738 786 734 726 729 541 321 138 
123 315 508 677 750 717 745 743 720 772 683 754 696 784 769 747 755 763 700 700 756 717 784 714 730 691 754 763 718 784 782 784 747 752 783 765 725 542 363 133 
116 330 529 704 717 724 731 752 714 746 692 746 755 746 759 716 732 732 760 759 734 742 775 738 764 777 724 738 772 809 782 790 728 778 758 726 729 533 333 127 
114 311 544 694 786 750 748 723 765 742 762 723 762 749 737 748 737 755 779 788 755 761 746 764 727 769 724 717 710 760 752 727 767 756 817 723 762 551 357 132 
130 361 569 737 732 742 770 783 731 722 748 712 793 758 752 752 740 728 733 728 737 772 739 718 715 738 759 736 754 765 732 718 744 750 721 720 745 528 311 147 
113 362 515 757 729 726 758 713 782 743 720 763 720 763 766 799 818 787 743 737 691 736 761 769 770 739 758 733 714 807 761 767 721 737 699 808 710 525 352 113 
115 327 528 714 738 733 769 760 743 769 781 722 763 706 786 730 689 772 766 717 751 748 790 723 762 752 742 736 734 743 790 729 740 766 711 735 698 512 331 137 
126 362 537 730 793 729 776 752 701 766 786 791 775 720 782 749 727 702 715 742 766 714 741 713 717 772 703 777 731 753 712 755 734 726 816 718 770 565 338 120 
110 307 506 703 721 781 735 772 735 759 747 752 748 755 754 734 771 755 722 709 791 706 700 710 737 743 744 761 762 752 769 789 806 740 769 767 723 506 357 111 
100 333 536 699 748 741 760 697 764 779 764 740 764 750 752 702 773 737 732 748 749 766 753 769 779 788 728 750 730 765 778 747 718 741 743 783 732 534 337 117 
126 335 518 708 743 786 715 707 729 772 737 733 775 769 754 730 729 698 807 783 760 732 758 755 751 737 748 702 779 719 764 710 789 705 761 745 709 538 326 131 
140 336 519 680 729 783 801 802 741 727 748 711 734 764 772 766 770 768 758 781 788 738 763 740 778 725 708 733 755 763 737 689 798 795 726 727 730 544 341 119 
122 346 547 752 766 775 817 731 715 723 764 754 718 698 741 775 721 724 789 736 732 765 739 738 738 735 744 758 776 787 732 699 805 771 721 697 729 549 378 118 
108 331 522 707 775 766 743 729 704 777 740 758 734 748 783 763 794 748 793 729 694 809 760 773 709 747 741 757 782 719 734 786 683 725 748 755 716 567 361 139 
121 344 537 714 773 700 723 761 710 738 755 740 748 773 751 739 788 749 755 711 740 758 722 727 759 816 773 740 730 768 795 755 758 748 795 773 736 580 350 142 
129 314 560 698 769 768 762 775 732 728 770 751 744 767 693 715 754 801 747 733 722 724 763 766 715 727 742 755 741 789 722 743 736 730 727 716 735 552 344 146 
125 321 534 719 717 743 754 737 782 737 754 739 781 736 731 783 721 726 742 740 760 725 785 727 811 762 746 747 788 721 718 680 773 751 749 726 675 569 357 120 
104 341 534 700 760 756 725 727 803 747 724 736 757 784 765 735 725 767 778 734 748 753 787 765 735 735 719 765 750 771 703 756 742 761 746 759 776 545 325 155 
136 338 510 728 742 744 737 776 710 723 776 719 734 770 791 730 759 740 809 765 750 716 777 742 781 723 750 755 751 749 735 783 716 781 733 809 746 544 330 131 
116 330 527 766 749 762 736 767 775 739 732 758 744 775 730 775 773 768 767 710 805 732 733 779 749 690 760 748 726 718 778 766 763 746 788 733 736 527 358 129 
126 340 533 702 773 726 771 798 721 747 734 748 744 783 760 732 679 766 782 748 709 781 743 721 761 782 784 781 776 783 754 761 733 805 742 802 742 552 311 139 
122 318 528 732 722 822 766 764 754 743 749 763 719 775 747 776 743 703 739 740 782 735 759 748 756 788 763 735 717 741 754 712 748 745 714 741 692 530 316 144 
128 340 569 719 742 796 811 735 744 689 717 695 693 761 772 718 781 770 751 730 799 742 762 705 765 719 744 755 779 722 771 756 749 784 762 769 752 550 352 143 
92 334 522 738 746 765 780 750 801 679 776 737 751 724 740 751 764 772 806 780 669 784 740 714 725 760 754 727 719 759 778 747 724 726 680 773 739 558 338 119 
134 339 527 691 783 739 769 690 769 766 805 754 729 738 762 731 747 743 757 729 714 759 728 752 718 752 742 757 733 751 746 710 738 805 764 746 718 530 345 125 
107 332 557 730 741 799 756 710 747 748 756 709 783 782 733 732 706 738 786 748 747 775 750 757 778 711 773 760 753 737 726 741 819 781 750 721 738 521 329 129 
125 343 545 762 761 778 733 750 736 777 733 773 756 772 771 758 718 746 734 735 770 724 762 757 770 692 717 754 770 792 721 742 760 757 807 711 731 575 344 136 
94 303 463 669 758 699 718 703 791 711 709 656 732 674 698 681 683 683 746 720 738 695 760 737 731 722 711 705 726 733 722 773 679 751 709 759 691 515 327 126 
77 214 325 521 513 531 535 453 532 519 485 497 520 469 488 523 502 519 545 515 518 505 564 463 503 500 527 573 513 492 539 557 539 560 497 508 514 372 267 84 
49 140 177 303 315 297 307 296 312 348 299 321 330 322 327 304 332 293 302 333 310 314 340 310 297 312 302 320 267 344 331 339 317 312 313 329 307 225 135 63 
21 57 72 103 97 120 129 104 115 113 113 104 113 99 95 103 98 104 131 100 117 124 114 96 107 117 102 112 132 115 132 131 97 102 127 115 121 81 56 20 
