# Format: McCode with text headers
# URL: http://www.mccode.org
# Creator: McStas 2.5 - Dec. 12, 2018
# Instrument: ISIS_test.instr
# Ncount: 1000000
# Trace: no
# Gravitation: no
# Seed: 1570824486
# Directory: ISIS_test/0
# Date: Fri Oct 11 20:16:19 2019 (1570817779)
# type: array_1d(1000)
# Source: ISIS_test (ISIS_test.instr)
# component: lam1
# position: 0 0 0.02
# title: Wavelength monitor
# Ncount: 1000000
# filename: lambdagr.dat
# statistics: X0=1.98382; dX=1.89205;
# signal: Min=2.91246e+06; Max=1.29819e+10; Mean=8.23403e+08;
# values: 8.23403e+11 1.60195e+09 1e+06
# xvar: L
# yvar: (I,I_err)
# xlabel: Wavelength [AA]
# ylabel: Intensity
# xlimits: 0.3 12
# variables: L I I_err N
0.30585 1.29818622e+10 204355801.4 15332 
0.31755 1.265521916e+10 200493215.6 15192 
0.32925 1.182606722e+10 191589038.3 14488 
0.34095 1.155288463e+10 185944610.6 14150 
0.35265 1.107308849e+10 186924582.2 13377 
0.36435 1.100498082e+10 190448585.6 13198 
0.37605 1.021868723e+10 175477991.2 12776 
0.38775 1.00973407e+10 177406810.5 12255 
0.39945 1.007686479e+10 178247441.4 12184 
0.41115 9415811918 168968963.5 11606 
0.42285 9462796475 170999274.5 11507 
0.43455 9327904173 170753601.8 11450 
0.44625 9016951428 168871012.5 10823 
0.45795 8807591097 163715845.4 10602 
0.46965 8394936802 160434949.2 10218 
0.48135 8139660177 160961555.4 9788 
0.49305 7842857807 155324482.4 9671 
0.50475 7927332899 159240991.3 9528 
0.51645 7553061291 154523520.6 9128 
0.52815 7284612722 149792524.2 8868 
0.53985 7046870417 146699316.7 8644 
0.55155 7103835619 151182844.5 8583 
0.56325 7207092026 153785820.4 8618 
0.57495 6893914887 145354609.6 8406 
0.58665 6519136343 138747235.2 8231 
0.59835 6926240950 149137222.3 8240 
0.61005 6468560151 139511129.3 8003 
0.62175 6549816081 141860934 7975 
0.63345 6185817338 138353657.8 7694 
0.64515 6126410339 137246929.1 7387 
0.65685 5953527548 136956796.9 7295 
0.66855 5819418994 135277789 6946 
0.68025 5520056722 128605112.5 6773 
0.69195 5428509646 127653763.4 6766 
0.70365 5448709137 131630892.9 6437 
0.71535 5189772839 126389884 6357 
0.72705 5113283455 126594523.4 6041 
0.73875 4850982056 122502194.9 5979 
0.75045 4591555794 119410174.1 5647 
0.76215 4612463430 118058361.3 5780 
0.77385 4418076297 117888612.9 5373 
0.78555 4341543555 116319023.3 5280 
0.79725 4188549133 113457154.9 5164 
0.80895 3924199414 107115219.4 4862 
0.82065 4156899504 118104494.6 4883 
0.83235 3834787020 108629607.7 4846 
0.84405 4026427149 114964270.2 4705 
0.85575 3819117465 109237998.2 4482 
0.86745 3552338227 104566887.8 4376 
0.87915 3616842094 109456327.3 4262 
0.89085 3459735355 105517067.1 4126 
0.90255 3546088607 107724944.2 4113 
0.91425 3143489769 99339069.06 3890 
0.92595 2972157705 91116012.82 3880 
0.93765 3378715516 105326684.8 3834 
0.94935 2945648763 95734026.65 3615 
0.96105 2842667724 93873604.13 3517 
0.97275 2954047167 95999440.32 3508 
0.98445 2825694726 92203812.49 3451 
0.99615 2733548576 89921370.77 3351 
1.00785 2658773876 88995083.52 3301 
1.01955 2652162228 87202878.71 3277 
1.03125 2427731870 85690325.46 3056 
1.04295 2434132346 86041926.15 3104 
1.05465 2400312285 84366476.3 3024 
1.06635 2523245788 89109716.76 3028 
1.07805 2374184744 87060827.58 2913 
1.08975 2334232251 84669850.46 2860 
1.10145 2240132992 82167575.79 2705 
1.11315 2100213701 80663252.64 2600 
1.12485 2138339055 80918923.39 2730 
1.13655 2136243120 80514941.96 2659 
1.14825 2016262599 77709430.77 2546 
1.15995 2109322930 80690736.04 2584 
1.17165 2129752545 82820403.71 2478 
1.18335 1968627872 78279343.26 2422 
1.19505 1905296178 70572286.31 2553 
1.20675 2029402590 80305388.7 2472 
1.21845 1931470956 77019267.53 2396 
1.23015 1855992767 74293387.82 2317 
1.24185 1811269408 73872373.33 2273 
1.25355 1848482114 73750462.07 2344 
1.26525 1983076886 79226775.95 2366 
1.27695 1823703053 75839274.35 2246 
1.28865 1731462516 71033888.03 2116 
1.30035 1778294379 75036886.13 2126 
1.31205 1798791326 74849484.51 2119 
1.32375 1969364456 82370373.93 2168 
1.33545 1719573857 75373707.23 2039 
1.34715 1787737289 78727941.5 2022 
1.35885 1610673744 70573945.33 2040 
1.37055 1665550554 70976498.01 1989 
1.38225 1591592270 71272612.94 1932 
1.39395 1659946714 73651404.7 1914 
1.40565 1623964735 70689038.99 1931 
1.41735 1491890251 67267618.94 1834 
1.42905 1535902507 70734153.03 1813 
1.44075 1631656790 74880345.92 1777 
1.45245 1483209824 67608327.85 1789 
1.46415 1498077620 70267291.92 1742 
1.47585 1452637417 65969343.68 1806 
1.48755 1439241797 67867982.77 1741 
1.49925 1464341504 70314894.85 1681 
1.51095 1472229601 69708742.1 1690 
1.52265 1435916567 65974691.88 1785 
1.53435 1424866916 65344393.12 1716 
1.54605 1383687492 67845625.03 1663 
1.55775 1358987214 64731869.68 1661 
1.56945 1313677360 62099919.14 1660 
1.58115 1305038688 63456027.67 1548 
1.59285 1262943103 62049382.03 1582 
1.60455 1321909173 66676564.37 1578 
1.61625 1320934201 63304820.37 1579 
1.62795 1203713493 58107898.82 1572 
1.63965 1177367730 57885931.79 1443 
1.65135 1332391227 64030034.21 1587 
1.66305 1251795296 61637717.15 1543 
1.67475 1246328786 60025794.41 1520 
1.68645 1197226613 62261326.15 1451 
1.69815 1332339410 68273058.38 1513 
1.70985 1222764962 60651522.03 1501 
1.72155 1230642936 63982068.46 1443 
1.73325 1117621193 56120360.16 1465 
1.74495 1186497795 60865043.39 1416 
1.75665 1282522851 64458564.67 1490 
1.76835 1153257039 59663035.15 1385 
1.78005 1149982245 60455396.43 1353 
1.79175 1071362614 56246139.09 1389 
1.80345 1077554156 58271544.31 1321 
1.81515 1171220069 65361231.94 1335 
1.82685 1066852587 53162045.21 1357 
1.83855 1073225754 57844885.91 1343 
1.85025 1101092404 60053611.42 1329 
1.86195 1127822356 61171694.64 1306 
1.87365 1100296090 57593812.54 1356 
1.88535 1166556513 59602374.26 1354 
1.89705 1101383429 57979212.57 1298 
1.90875 1073504388 59305423.69 1343 
1.92045 963375328.6 51526358.16 1277 
1.93215 1108181876 59861781.56 1312 
1.94385 1076182466 58605194.39 1297 
1.95555 1056342382 56078023.54 1339 
1.96725 1070595990 58209078.05 1289 
1.97895 1109187686 59138733.4 1346 
1.99065 1062370692 56967566.95 1268 
2.00235 1055347443 57703136.16 1270 
2.01405 1183580481 64135481.52 1329 
2.02575 986854946.9 56734775.11 1199 
2.03745 998995790.3 52926334.58 1234 
2.04915 1029563781 59358348.92 1167 
2.06085 1108033918 60481732.09 1282 
2.07255 1000078863 54181984.09 1264 
2.08425 1033868839 56167716.55 1261 
2.09595 1133319083 63857850.48 1311 
2.10765 1144907758 60542273.78 1298 
2.11935 1014891930 59574597.34 1211 
2.13105 1169116297 62231254.09 1309 
2.14275 1030992374 55756013.22 1245 
2.15445 1083837766 58965199.37 1288 
2.16615 1058343912 54123343.95 1310 
2.17785 1124236075 61958431.78 1266 
2.18955 1077841083 59797102.85 1241 
2.20125 999404558.1 53566142.27 1267 
2.21295 1044355924 54530452.75 1219 
2.22465 1135432219 60454305.19 1289 
2.23635 1073721292 59450870.84 1277 
2.24805 1134235038 60117141.17 1291 
2.25975 1099247058 60501592.23 1306 
2.27145 1087373657 58731233.66 1309 
2.28315 1137675004 60717982.72 1315 
2.29485 1043639716 55234072.49 1284 
2.30655 1012918457 52253184.65 1304 
2.31825 1235657012 62932965.93 1393 
2.32995 1016290828 53196399.4 1329 
2.34165 994110750 55254379.41 1213 
2.35335 1077569017 57802343.7 1307 
2.36505 1124501664 63064404.18 1276 
2.37675 1029672560 54779453.09 1291 
2.38845 1081454182 59151418.72 1314 
2.40015 1017276928 55350545.42 1279 
2.41185 1093703567 56897999.98 1333 
2.42355 1130555458 64001882.04 1274 
2.43525 1139633392 60389252.38 1330 
2.44695 1038873781 58563936.48 1277 
2.45865 1093956705 57628857.89 1338 
2.47035 1209700255 66115258.05 1400 
2.48205 1149203721 59123694.22 1367 
2.49375 1087148831 57760667.65 1322 
2.50545 1032535893 53626911.77 1314 
2.51715 1016934315 53966333.81 1277 
2.52885 1069068147 58423382.29 1306 
2.54055 1125401710 60205751.92 1314 
2.55225 1126857793 59513712.41 1346 
2.56395 1150665033 59737814.17 1392 
2.57565 1195710276 62553544.6 1358 
2.58735 1063663831 56453650.31 1273 
2.59905 1155945097 60538820.47 1404 
2.61075 1090454146 56721963.63 1384 
2.62245 1112978380 60373242.21 1321 
2.63415 1122421187 59630008.9 1389 
2.64585 1074763834 58593256.3 1230 
2.65755 1104595825 57790494.86 1388 
2.66925 1142516477 55865211.92 1441 
2.68095 1134507577 59986565.09 1365 
2.69265 1150012698 59635599.11 1432 
2.70435 1101527287 60395316.12 1356 
2.71605 1085380480 57263415.11 1369 
2.72775 1071273850 55802131.25 1367 
2.73945 1250682723 62798969.71 1469 
2.75115 1081969110 59907355.06 1345 
2.76285 1141508006 59448065.13 1381 
2.77455 1061298841 53095453.3 1386 
2.78625 1196187579 60907779.82 1422 
2.79795 1152658611 59091993.12 1399 
2.80965 1170268395 61345449.07 1423 
2.82135 1153536600 58083075.23 1427 
2.83305 1096766255 54788044.27 1449 
2.84475 1197636815 61759467.21 1418 
2.85645 1151999729 57843992.91 1427 
2.86815 1161234232 60103591.18 1389 
2.87985 1155064323 62570051.02 1321 
2.89155 1200273152 60523125.1 1442 
2.90325 1131404804 58747889.17 1382 
2.91495 1085274130 56670474.5 1399 
2.92665 1157805618 59690972.14 1438 
2.93835 1096039764 57170982.18 1401 
2.95005 1096868314 57041773.39 1421 
2.96175 1180372611 61423928.7 1385 
2.97345 1035402926 54856403.21 1346 
2.98515 1141398284 58948212.8 1360 
2.99685 1112610076 57832942.06 1398 
3.00855 986020924.2 53358858.59 1312 
3.02025 1166929860 59010308.16 1368 
3.03195 1149416949 60516378.58 1406 
3.04365 1178503408 64293245.54 1405 
3.05535 1103175012 57067213.22 1409 
3.06705 1256768239 64125225.95 1415 
3.07875 1244861328 65364322.33 1445 
3.09045 1101887546 57670525.05 1428 
3.10215 1123621680 56093963.82 1464 
3.11385 1147050066 59045440.51 1456 
3.12555 1151594503 58984635.24 1368 
3.13725 1147905249 56617401.93 1474 
3.14895 1113372958 59417783.02 1366 
3.16065 1122126445 59179630.43 1424 
3.17235 1050562057 53209559.34 1405 
3.18405 1229555929 60329690.14 1498 
3.19575 1275662136 63027142.11 1509 
3.20745 1137540321 58826706.84 1427 
3.21915 1062741178 55390758.26 1386 
3.23085 1083776220 57498704.09 1347 
3.24255 1104764413 55967341.91 1406 
3.25425 1236227771 64219992.72 1413 
3.26595 1151027594 61438447.42 1305 
3.27765 1190835045 61083771.81 1468 
3.28935 1207638539 63015365.61 1417 
3.30105 1150292653 60908353.88 1364 
3.31275 1094854346 57060432.56 1368 
3.32445 1235234546 63110952.95 1462 
3.33615 1095074289 58500793.34 1328 
3.34785 1094087845 58563034.94 1380 
3.35955 1156167468 63440369.88 1351 
3.37125 1041245114 57070161.19 1367 
3.38295 1090719687 57303660.62 1352 
3.39465 1135528962 62692338.07 1324 
3.40635 1164172235 61157281.59 1375 
3.41805 1058451052 60623575.25 1320 
3.42975 1034179212 53817977.13 1322 
3.44145 1133152307 59505909.39 1340 
3.45315 1102146767 61269848.47 1325 
3.46485 1160994659 62684519.73 1316 
3.47655 1001450357 56605046.96 1263 
3.48825 1156741898 60027463.24 1316 
3.49995 1088410061 61911452.77 1281 
3.51165 1127167346 59172316.28 1334 
3.52335 1004708846 56838660.6 1213 
3.53505 1079944365 59149690.65 1262 
3.54675 1075892559 57698357.13 1246 
3.55845 1007678056 57042563.94 1274 
3.57015 1068575669 58421631.91 1242 
3.58185 995461271.4 53880031.35 1271 
3.59355 1024885145 56554825.56 1251 
3.60525 1032892891 56425132.26 1273 
3.61695 911940934.2 51647664.85 1220 
3.62865 1040908090 56392727.71 1251 
3.64035 940725340.3 51965291.95 1196 
3.65205 1034891638 56253756.02 1265 
3.66375 1115686705 61843302.09 1266 
3.67545 992270555.4 53987056.1 1216 
3.68715 1028841106 57511970.95 1148 
3.69885 931400278.2 51809330.87 1164 
3.71055 979375780.5 56266313.16 1194 
3.72225 1085338252 58471599.24 1212 
3.73395 1065460500 60798929.97 1177 
3.74565 932025446 53671902.58 1152 
3.75735 889373383.6 48923410.26 1124 
3.76905 1052321886 60634529.49 1209 
3.78075 1026261550 57801293.87 1185 
3.79245 932343735.3 54663506.23 1084 
3.80415 839873779.9 47511131.88 1141 
3.81585 1029058779 58409556.17 1113 
3.82755 973463106.9 55487701.63 1119 
3.83925 911970871.2 53438440.5 1108 
3.85095 823646593.9 48801471.49 1064 
3.86265 1034159908 60133066.92 1159 
3.87435 864643130 49491667.51 1106 
3.88605 824182219.6 47099940.31 1065 
3.89775 940601249.3 54841521.9 1131 
3.90945 879001751.3 54517362.18 1054 
3.92115 806529343.3 48007631.11 1065 
3.93285 925527159.1 54222303.9 1096 
3.94455 898125618.6 54572102.6 1035 
3.95625 817060492.9 48023605.3 1077 
3.96795 812698505.4 49057016.44 1063 
3.97965 841918252.9 47984375.35 1120 
3.99135 920909646.4 54282014.28 1047 
4.00305 890619616 52759393.3 1051 
4.01475 848561699.1 51841151.19 1031 
4.02645 850691211.2 51330324.46 1026 
4.03815 805327502.1 46320374.78 1035 
4.04985 836845409.9 52064119.13 1023 
4.06155 878943721.6 50261290.44 1045 
4.07325 843234184.9 54744778.25 1013 
4.08495 818089884.3 48454359.76 1027 
4.09665 813612786.1 51727037.34 974 
4.10835 757615994.1 48974493.91 996 
4.12005 741625129.5 47826838.07 869 
4.13175 808800234.4 51711428.62 969 
4.14345 824798833.4 53308278.76 969 
4.15515 697158601.8 43845502.65 905 
4.16685 795834891.2 50315727.97 977 
4.17855 825908088.7 54557165.92 931 
4.19025 740069346.4 43089017.78 980 
4.20195 765533889.8 47970963.46 925 
4.21365 853948341.3 52636515.45 953 
4.22535 789365342.3 50989641.79 935 
4.23705 814317571.9 51452480.44 975 
4.24875 754575418.5 46372121.91 928 
4.26045 816973325.7 53630229.65 914 
4.27215 778912653 49434243.02 912 
4.28385 707917436.9 45181889.45 938 
4.29555 691269128.2 42890229.35 893 
4.30725 706552241.2 46182411.68 871 
4.31895 778353703.7 51174447.12 898 
4.33065 746245089.3 49817652.78 837 
4.34235 663927260.9 45813966.86 868 
4.35405 778613830.2 51927872.3 867 
4.36575 686044097.3 45847609.87 860 
4.37745 672162405.1 45807631.36 841 
4.38915 747398371 49773655.37 914 
4.40085 698641384.9 47484818.77 861 
4.41255 724870398.3 47722580.35 854 
4.42425 672058030.7 46242875.27 856 
4.43595 711545931.4 46653027.37 846 
4.44765 710115410.7 47857482.69 833 
4.45935 659178608.8 46225145.59 780 
4.47105 647422034.8 41381954.63 829 
4.48275 670545326.7 46985716.57 813 
4.49445 695683220 45482232.24 831 
4.50615 726800048 51048291.66 798 
4.51785 752651993.8 52133817.52 838 
4.52955 510048913.3 34568365.83 739 
4.54125 613488772 41892702.38 793 
4.55295 661543053.8 46068199.27 825 
4.56465 632530368.1 44729311.07 815 
4.57635 613766583.2 43805633.44 758 
4.58805 672807998.9 50895229.67 766 
4.59975 617921764.5 45185310.7 740 
4.61145 603646932.6 45267346.25 750 
4.62315 626116340.9 44786752.3 740 
4.63485 601782439.2 42356300.89 746 
4.64655 568321605.2 39309525.14 716 
4.65825 580115178.3 42787966.99 704 
4.66995 553614377.9 41843441 674 
4.68165 621725263.9 49401823.32 699 
4.69335 577308606.3 44251634.16 700 
4.70505 582982037.8 44015665.78 672 
4.71675 628052904.4 47257796.63 673 
4.72845 534998561.3 40738398.07 662 
4.74015 547109405 43885000.47 640 
4.75185 532856720.7 41276946.99 650 
4.76355 545070623.6 39170357.21 657 
4.77525 558260347.7 40627431.08 688 
4.78695 469491842.3 36134049.94 627 
4.79865 556798674.2 42745920.86 707 
4.81035 569672821.3 44684057.66 652 
4.82205 542003633.5 42506336.99 613 
4.83375 501758586.2 40377636.19 656 
4.84545 525566278.6 42151829.38 621 
4.85715 583489346 44787189.89 653 
4.86885 507327998.8 37321525.14 637 
4.88055 581165241.4 46319751.26 625 
4.89225 480100119.5 37829743.55 609 
4.90395 530133296.9 39757231.32 670 
4.91565 437383081.8 32324194.24 568 
4.92735 429663098.5 34363369.04 577 
4.93905 488430689.7 41640540.98 597 
4.95075 497224069 38960457.4 586 
4.96245 479091329.3 39692307.88 595 
4.97415 481513554.9 37934370.39 584 
4.98585 435479992.5 37828512.86 555 
4.99755 435187989.7 38825851.35 527 
5.00925 447445605.7 36018733.98 547 
5.02095 499729893.9 41977582.91 535 
5.03265 432031642.3 34261930.8 554 
5.04435 498614574.1 40852427.51 543 
5.05605 417510722.2 36505379.24 548 
5.06775 433965057.1 37234402.15 540 
5.07945 471517073.3 37755131.46 551 
5.09115 450891767.4 38793588.34 539 
5.10285 471777522.8 40352167.07 581 
5.11455 412227354.6 36641877.33 510 
5.12625 418676634.4 36743921.89 493 
5.13795 454055719.9 39089857.39 520 
5.14965 455104439.7 39029574.9 566 
5.16135 427554364.6 35652065.48 532 
5.17305 472397455.2 41510080.8 512 
5.18475 409513394.6 34570644.02 501 
5.19645 432804861.4 35814119.76 520 
5.20815 366530727.8 32543681.85 495 
5.21985 478450481.3 40576137.82 515 
5.23155 378602755.6 33657140.39 510 
5.24325 366108234.2 30597735.98 495 
5.25495 460594804.7 40226626.3 531 
5.26665 382251687.2 33542323.57 465 
5.27835 329718483.5 28513543.67 465 
5.29005 437100328.4 34940941.18 521 
5.30175 332636199.4 31824507.51 458 
5.31345 422474879.9 38675326.41 461 
5.32515 399923061.1 36173123.56 470 
5.33685 387374441.3 34818224.73 461 
5.34855 328092187.6 29144272.01 456 
5.36025 354202556 28392482.66 464 
5.37195 365350013.7 31912699.41 444 
5.38365 397207822.9 34096080.72 472 
5.39535 332865675.6 29419848.78 443 
5.40705 347208374.7 29797884.63 449 
5.41875 391621448.7 36208236.47 419 
5.43045 325209793.6 27239376.9 454 
5.44215 396872425.6 37393411.79 466 
5.45385 282925117.7 27680719.58 380 
5.46555 330227755.7 33054106.56 415 
5.47725 368721391.6 34121293.25 425 
5.48895 416055469.9 41743343.77 410 
5.50065 373136077.7 34688348.77 435 
5.51235 345187153.5 32769586.06 436 
5.52405 336169512.7 31258399.38 421 
5.53575 319330202.8 31912820.58 367 
5.54745 337399973.4 32316141.47 396 
5.55915 316452441 30421244.49 403 
5.57085 397597706.9 38396365.47 411 
5.58255 260264910.8 24617345.71 352 
5.59425 300361749.4 28381341.71 384 
5.60595 345149953.7 34946983.46 394 
5.61765 329977002.4 32044795.04 389 
5.62935 274436806 25864895.81 384 
5.64105 315087900.3 32420745.14 373 
5.65275 302159763.1 30557928.46 370 
5.66445 378079248.9 35958901.23 403 
5.67615 284031626.2 27321890.31 374 
5.68785 278959532.4 26744316.46 374 
5.69955 343248102.7 33411642.12 389 
5.71125 320484168.5 29612361.06 382 
5.72295 286873067.4 29035017.03 367 
5.73465 298895788.8 30339996.05 370 
5.74635 307299779 32161055.35 354 
5.75805 253123980.6 26087600.52 343 
5.76975 269626492 25893027.49 347 
5.78145 316239005.4 31988129.15 380 
5.79315 262926324.6 27844327.97 342 
5.80485 269557412.3 29000138.77 316 
5.81655 296946203.5 28663013.16 372 
5.82825 233391016.8 25136028.47 320 
5.83995 277701477.5 27193404.06 340 
5.85165 287742240.8 32470592.64 318 
5.86335 216698145 21153495.18 315 
5.87505 239854839.7 25464819.6 319 
5.88675 254527693.2 23481026.64 380 
5.89845 303240724.5 31436132.6 358 
5.91015 287187311.8 33252212.29 312 
5.92185 263969373.9 27034186.17 342 
5.93355 240936043.8 25687562.16 324 
5.94525 255451782.7 29723554.6 321 
5.95695 223558228.3 23402013.4 314 
5.96865 263803906.1 30933683.68 294 
5.98035 283298897.4 29075851.27 317 
5.99205 213356026.6 23033552.25 285 
6.00375 301196492.9 32204738.47 319 
6.01545 236645115.1 26478301.76 287 
6.02715 246872778.5 28695542.38 268 
6.03885 305141570.6 34140017.84 323 
6.05055 235105655.6 25453610.12 276 
6.06225 232902054.4 24692165.66 307 
6.07395 237428445.2 28817471.1 284 
6.08565 223595433.1 24154848.35 315 
6.09735 262234306.9 29004614.91 289 
6.10905 237568874.7 27353567.59 269 
6.12075 224466681.3 24834551.37 290 
6.13245 263414674.1 32508200.73 287 
6.14415 212634617.9 24316034.57 249 
6.15585 211593377.1 20131191.65 311 
6.16755 234373969.2 26837996.88 289 
6.17925 209627153 24321528.43 251 
6.19095 205396297.9 21376884.19 290 
6.20265 198834741.4 22856190.57 255 
6.21435 223901853.6 28602682.94 263 
6.22605 154703022.7 16759759.95 274 
6.23775 220301051.9 25655387.6 253 
6.24945 209591386.4 24399543.73 278 
6.26115 198186507.2 24367320.47 258 
6.27285 168757345.4 19667416.44 261 
6.28455 264589882.2 31376727.33 267 
6.29625 195365275.8 25051144.38 234 
6.30795 202186643.6 28071349.33 230 
6.31965 185376729.6 24066816.56 238 
6.33135 180940820.3 25560842.64 230 
6.34305 186204633.2 24669535.05 229 
6.35475 228710063.1 28861862.74 252 
6.36645 172057989.8 21728202.85 233 
6.37815 182697374 22233308.98 239 
6.38985 158488691.4 23059635.27 214 
6.40155 174381459.9 23374696.25 224 
6.41325 172327544 24312504.23 217 
6.42495 185672072.5 23851879.23 245 
6.43665 221005263.6 27689303.2 238 
6.44835 151354438.2 19398272.06 218 
6.46005 186476066.5 22919445.44 226 
6.47175 221701471.8 26867138.28 252 
6.48345 188381914.8 23383502.03 228 
6.49515 154140048.3 20071260.89 203 
6.50685 182673152.1 23470570.18 229 
6.51855 176061089.8 23500179.83 219 
6.53025 170333731.1 24104180.93 203 
6.54195 219350688.4 28593270.91 228 
6.55365 194100825.1 23924242.58 207 
6.56535 203478368 27400570.16 210 
6.57705 162934701.5 20929832.92 223 
6.58875 146560993.7 17760046.53 207 
6.60045 187539505.7 23828210.21 219 
6.61215 208348982.7 28482123.4 215 
6.62385 176409383.6 24970232.7 208 
6.63555 134446753.1 19158546.16 190 
6.64725 175039930.7 23291949.23 211 
6.65895 205687977.8 28217485.89 223 
6.67065 144110578.1 20395431 189 
6.68235 161325106.4 24864494.3 196 
6.69405 168007695 24116813.97 204 
6.70575 143264879.1 20493506.55 189 
6.71745 151803955.3 20864881.91 181 
6.72915 216577453.6 31113147.81 205 
6.74085 134922710.9 19766582.92 183 
6.75255 166952205.1 24840179.64 189 
6.76425 145721274.8 24549367.46 179 
6.77595 173418570.2 22478372.76 181 
6.78765 154808065.4 22030554.37 181 
6.79935 137447589.4 18557970.83 189 
6.81105 121678406.1 19147392.03 164 
6.82275 140489025.8 19814926.58 189 
6.83445 121930191.4 18567916.05 184 
6.84615 143968875.5 18750293.36 184 
6.85785 185611887.7 28858108.01 178 
6.86955 178914862.9 25586710.53 190 
6.88125 138863278.2 19074813.19 166 
6.89295 154136131 20454720.32 197 
6.90465 125082441.8 19951410.73 160 
6.91635 155546972.9 22384342.94 180 
6.92805 144984212.9 19535411.89 176 
6.93975 116893302.3 17880914.18 144 
6.95145 112393154 17046854.39 167 
6.96315 118644235.8 16977197.83 163 
6.97485 119009578.4 16663870.21 170 
6.98655 121187253.7 18124181.09 148 
6.99825 128369448.8 18953575.66 181 
7.00995 119961094.6 18245381.65 162 
7.02165 116712153.5 15794150.09 156 
7.03335 130978408.4 20789150.72 153 
7.04505 129301427.8 20477020.91 161 
7.05675 112785137.5 17597918.22 138 
7.06845 134318528.8 22257307.55 155 
7.08015 106919146.4 17626013.43 133 
7.09185 166633362 24460806.08 166 
7.10355 113624214.5 20370766.09 153 
7.11525 137889759.7 21048176.78 160 
7.12695 92727358.6 16693808.64 136 
7.13865 108326453.7 21095746.73 128 
7.15035 157221234.5 26379212.97 146 
7.16205 100824805.1 16910731.28 135 
7.17375 108192153 17489232.13 139 
7.18545 81740439.26 12740727 134 
7.19715 125616529.5 20349661.75 147 
7.20885 112720573.3 18032988.84 137 
7.22055 97053744.13 14798637.52 129 
7.23225 108181471.5 15898085.39 137 
7.24395 152029746.8 24200640.48 143 
7.25565 124428773.9 21017871.7 139 
7.26735 114403979.1 19423709.93 130 
7.27905 117612434 17501258.76 143 
7.29075 98983390.61 15038787.09 135 
7.30245 93675819.53 17014971.8 141 
7.31415 101794562.4 18990127.65 125 
7.32585 111129377.7 18937608.12 123 
7.33755 140907362.6 26344470.81 120 
7.34925 131839632.8 23598495.22 120 
7.36095 109788848.2 18618890.62 130 
7.37265 120621359.9 22172397.93 144 
7.38435 96272393.54 17850439.93 129 
7.39605 101497925.9 17874408.58 126 
7.40775 86310746.95 14741066.25 108 
7.41945 91470054.88 15774168.68 108 
7.43115 128271442.8 20007348.21 132 
7.44285 105595335.8 15756430.36 144 
7.45455 117179001.9 20458155.3 125 
7.46625 71823112.25 12476609.81 117 
7.47795 93229704.79 18288532.25 116 
7.48965 86237487.45 17399318.7 98 
7.50135 113119491.3 19603166.97 124 
7.51305 67590998.23 11272589.68 114 
7.52475 83938171.46 16209678.49 108 
7.53645 93887161.75 19759886.22 104 
7.54815 78748307.73 14925064.26 94 
7.55985 90508187.97 17672957.95 108 
7.57155 79484271.51 14581843.59 107 
7.58325 110562305.1 21124480.14 121 
7.59495 94175727.03 16114006.37 116 
7.60665 64740597.99 11316328.2 108 
7.61835 100312150.8 20485737.78 112 
7.63005 77024943.14 12792966.07 111 
7.64175 58398340.41 14467785.36 106 
7.65345 94498609.27 18835067.38 106 
7.66515 80892346.11 17105252.2 108 
7.67685 69503903.37 13515042.91 103 
7.68855 112085579.1 20137724.78 106 
7.70025 77945980.53 11379552.51 112 
7.71195 112696556.1 21217119.78 98 
7.72365 97334437.97 18993097.61 96 
7.73535 95561289.46 17255907.28 100 
7.74705 73022058.18 10615015.49 116 
7.75875 94226223.49 17332787.14 96 
7.77045 71917659.23 15630066.38 81 
7.78215 84686795.5 14732641.61 99 
7.79385 78006504.18 13174621.19 106 
7.80555 71247894.15 15951678.27 80 
7.81725 89933720.13 17571543.1 102 
7.82895 59714177.15 11354797.79 82 
7.84065 59356702.76 11881542.68 89 
7.85235 57958614.22 10758029.12 93 
7.86405 47055696.48 8461251.471 82 
7.87575 68748606.45 14071276.71 87 
7.88745 69957100.79 12897484.24 102 
7.89915 99804950.43 21005535.24 105 
7.91085 57038144.08 10162123.82 99 
7.92255 77332965.79 16081694.2 102 
7.93425 74350507.12 16265657.61 96 
7.94595 86828460.21 20082161.05 87 
7.95765 89458654.15 16938267.8 91 
7.96935 66225320.34 13035137.67 92 
7.98105 75700436.05 14745978.46 86 
7.99275 69695348.74 13404651.75 90 
8.00445 83013078.75 16226347.95 101 
8.01615 69959258.07 12005445.24 102 
8.02785 65923277.93 12531999.31 92 
8.03955 80950700.93 18775327.53 87 
8.05125 66673379.99 12401225.84 77 
8.06295 64492617.94 12814485.44 94 
8.07465 58208252.76 11765303.55 84 
8.08635 65788079.29 11555144.77 92 
8.09805 102620787.6 20878394.99 97 
8.10975 86979911.47 16917770.73 91 
8.12145 69526101.06 16225294.83 79 
8.13315 80077060.13 19890329.41 73 
8.14485 55977451.5 10967292.85 75 
8.15655 60658046.86 11062511.23 85 
8.16825 43652464.77 8895460.838 78 
8.17995 68478355.35 13465968.96 84 
8.19165 88663702.62 16900747.93 109 
8.20335 83312850.95 17692635.46 81 
8.21505 89253656.5 16046864.67 102 
8.22675 52546567.88 9428787.927 82 
8.23845 81634051.48 17096153.94 80 
8.25015 70991077.14 12691386.14 88 
8.26185 85740425.47 18032930.57 83 
8.27355 70399236.63 14792887.08 88 
8.28525 68556617.08 14760466.85 79 
8.29695 68054489.64 13957577.37 80 
8.30865 94771356.9 22083362.33 85 
8.32035 104803541 21161871.47 87 
8.33205 77586894.24 16432887.95 80 
8.34375 55542757.07 11227057.53 73 
8.35545 68636233.74 17129892.23 67 
8.36715 96596826.54 18528117.73 90 
8.37885 54297448.28 10976755.71 76 
8.39055 59396308.1 13654091.05 80 
8.40225 51362153.86 13834887.35 58 
8.41395 82047000.38 18228222.15 86 
8.42565 61206564.23 14723585.42 72 
8.43735 48616916.92 11933541.74 59 
8.44905 56321948.23 13067206.94 68 
8.46075 73036380.5 15029501.55 79 
8.47245 78826969.98 18092176.53 78 
8.48415 52981777.65 13816105.93 66 
8.49585 40282063.2 6985708.52 73 
8.50755 47381172.97 12745283.76 59 
8.51925 69259942.94 14900571.86 81 
8.53095 74786050.72 17219103.44 75 
8.54265 66083331.12 15431270.46 68 
8.55435 42776273.87 11116156.71 68 
8.56605 43636138.63 10706327.74 46 
8.57775 49029314.27 12036643.22 60 
8.58945 54628332.74 15559404.66 52 
8.60115 68297466.34 15411980.74 65 
8.61285 58769143.61 13954806.74 54 
8.62455 65571444.87 13795194.83 63 
8.63625 64087164.35 15673728.02 66 
8.64795 68942824.46 16903130.7 64 
8.65965 51189708.84 12605882.11 51 
8.67135 34653754.18 9300138.601 56 
8.68305 36570943.31 9467135.638 56 
8.69475 69090787.67 14658047.17 82 
8.70645 59734759.22 13549087.99 73 
8.71815 37982042.25 6883850.283 69 
8.72985 78176559.37 19030291.49 79 
8.74155 40425675.83 8521780.675 65 
8.75325 38515997.42 6587624.033 63 
8.76495 73386242.68 13407584.69 97 
8.77665 63143140.23 14051813.07 70 
8.78835 57465315.31 12842131.4 75 
8.80005 68223347.05 13366025.1 84 
8.81175 59513996.71 12580639.71 71 
8.82345 62872381.09 12577454.71 86 
8.83515 74426865.27 15616373.64 99 
8.84685 69568615.12 12165108.95 94 
8.85855 77243235.34 14731747.88 93 
8.87025 101113307.1 18839707.8 106 
8.88195 85428274.18 14489565.56 98 
8.89365 103288459.7 19563222.77 106 
8.90535 88684395.34 17433283.09 135 
8.91705 98646567.54 16905394.63 114 
8.92875 110985483 18955317.93 128 
8.94045 88511560.01 15240412.8 113 
8.95215 64375848.56 8986506.142 107 
8.96385 101636486.8 17402916.82 122 
8.97555 87448509.38 16525369.03 89 
8.98725 58357403.05 10365737.49 86 
8.99895 70246706.03 12883553.94 94 
9.01065 54352706.01 13135672.19 79 
9.02235 114797444.6 19356529.32 108 
9.03405 74605848.9 18075880.24 73 
9.04575 35206765.35 7229951.643 59 
9.05745 28286724.52 7838524.597 48 
9.06915 45525057.86 13812587.19 47 
9.08085 71629194.28 14665701.37 63 
9.09255 31789884.49 6549034.165 52 
9.10425 38923907.49 11744935.27 41 
9.11595 57037702.6 14935033.52 64 
9.12765 44853164.47 11124651.42 57 
9.13935 52737542.45 12298437.49 66 
9.15105 31481735.64 9457451.554 45 
9.16275 32285244.28 8252384.886 40 
9.17445 38259459.55 12985014.44 43 
9.18615 55081781.47 11618416.3 56 
9.19785 25038143.7 7662595.516 40 
9.20955 31452818.9 8609757.146 45 
9.22125 20861159.25 5257205.592 35 
9.23295 32784385.26 8285587.261 46 
9.24465 41781577.86 11892183.3 46 
9.25635 42849953.91 13214852.01 39 
9.26805 29725953.9 8730326.571 34 
9.27975 30699601.63 8483102.105 35 
9.29145 25009130.16 6910759.39 38 
9.30315 21375940.63 6455257.962 36 
9.31485 34389116.96 8595027.575 47 
9.32655 10460911.43 3656610.844 24 
9.33825 17654918.76 6051275.053 27 
9.34995 28139999.62 6539091.867 38 
9.36165 49010014.06 15971166.67 38 
9.37335 23065843.55 6469765.184 33 
9.38505 31672526.7 11111892.52 34 
9.39675 18724673.13 4994716.083 39 
9.40845 25344607.23 6809922.229 38 
9.42015 25161162.63 6691519.549 33 
9.43185 44041358.73 12785454.36 47 
9.44355 25008242.31 9310371.707 27 
9.45525 37359311.67 9701000.004 37 
9.46695 23786444.98 9615562.921 25 
9.47865 32056367.57 9392959.356 35 
9.49035 23295637.37 7975125.913 27 
9.50205 23238363.31 7242313.956 31 
9.51375 23452281.94 10729896.46 27 
9.52545 23139531.55 5130615.812 38 
9.53715 12650092.51 4371453.633 27 
9.54885 44485441.08 13617057.36 36 
9.56055 21266282.41 6208902.246 35 
9.57225 23641294.67 7756215.452 32 
9.58395 18856071.29 7131964.484 28 
9.59565 14549599.71 5920943.939 21 
9.60735 21161500.46 6157170.563 30 
9.61905 17120973.24 5263707.28 26 
9.63075 18596648.45 5150408.89 26 
9.64245 14105588.92 3426415.248 28 
9.65415 44595105.12 13124315.6 36 
9.66585 18058963.08 5297659.606 28 
9.67755 30952585.94 8793442.59 39 
9.68925 31053516.3 9989761.487 37 
9.70095 20416770.64 7113697.767 29 
9.71265 34304317.99 10990630.39 25 
9.72435 27727906.96 10113567.89 35 
9.73605 22904099.72 6954191.342 36 
9.74775 26608803.44 7971985.827 37 
9.75945 24052246.02 8751827.745 24 
9.77115 13324026.33 6726430.568 21 
9.78285 29752468.49 10778726.43 32 
9.79455 19323563.11 6120122.035 23 
9.80625 23703452.42 10320264.39 24 
9.81795 11165806.91 4321927.518 21 
9.82965 29837443.21 8109649.957 29 
9.84135 50899857.77 16561787.67 39 
9.85305 18633114.87 4965268.448 28 
9.86475 11193303.13 3470002.155 23 
9.87645 16572313.71 4826252.828 29 
9.88815 29534985.92 9535294.435 29 
9.89985 40857529.54 12353997.73 38 
9.91155 15690339.64 4017535.047 27 
9.92325 13629252.46 3882335.173 27 
9.93495 21937251.18 7575972.32 32 
9.94665 7869004.259 2688288.23 18 
9.95835 39493975.37 15916510.71 29 
9.97005 13074890.18 3673532.138 25 
9.98175 18385899.21 4292281.016 37 
9.99345 20064478.95 7407686.955 30 
10.00515 24025597.57 8769816.575 23 
10.01685 24105564.22 9755906.419 24 
10.02855 26696504.08 10821291.01 30 
10.04025 20007366.65 6627949.078 25 
10.05195 28518559.46 6466827.432 36 
10.06365 31278463.37 11253903.49 27 
10.07535 27900942.78 10631553.91 24 
10.08705 29965404.66 11895922.09 28 
10.09875 27684412.55 9433181.407 31 
10.11045 17534124.74 4465867.108 26 
10.12215 14623651.7 5493578.498 20 
10.13385 31647196.49 14469383.79 30 
10.14555 14829706.25 3727713.219 27 
10.15725 31674750.53 12047865.77 30 
10.16895 42956375.26 16670397.92 21 
10.18065 15425011.35 4988127.07 22 
10.19235 28342620.18 12051723.87 25 
10.20405 10802445.76 3385632.464 24 
10.21575 16713423.97 6955514.641 23 
10.22745 15666353.17 7558812.214 20 
10.23915 22205910.45 5535039.371 34 
10.25085 19814688.06 6692859.434 33 
10.26255 19491366.45 5523809.462 26 
10.27425 12016585.2 4081080.362 25 
10.28595 22074018.43 10655991.77 23 
10.29765 15033868 4617833.791 30 
10.30935 16359017.1 7877747.561 15 
10.32105 9090804.02 3334298.931 19 
10.33275 25337350.37 9000356.136 21 
10.34445 21445028.57 6817119.19 26 
10.35615 14813234 4361409.597 35 
10.36785 23269830.12 7597339.132 27 
10.37955 16218222.77 8101489.335 26 
10.39125 13799885.41 3519548.332 25 
10.40295 12858455.47 5114044.46 22 
10.41465 23927238.18 11218186.03 24 
10.42635 13977825.1 4351056.911 23 
10.43805 18033608.05 7986718.962 19 
10.44975 17548819.77 4997869.862 27 
10.46145 18488521.73 6048106.489 27 
10.47315 22252640.39 8241006.505 26 
10.48485 25018793.52 12257475.6 22 
10.49655 7338625.455 2115388.804 23 
10.50825 18845654.23 5470823.706 27 
10.51995 9546400.242 2876978.975 23 
10.53165 9567415.385 3026632.962 18 
10.54335 8963463.681 2221634.613 23 
10.55505 26830699.44 11653168.28 17 
10.56675 12612787.02 6201734.059 19 
10.57845 17758727.29 8783048.076 22 
10.59015 12193450.58 4773704.588 16 
10.60185 29309116.13 12539778.51 22 
10.61355 17901539.29 8362216.405 21 
10.62525 14746543.14 6389706.901 19 
10.63695 18628254.82 9445026.468 19 
10.64865 23130081.15 8557951.562 21 
10.66035 17523737.11 7227098.146 18 
10.67205 20359995.45 7726973.665 25 
10.68375 11965273.17 3758284.54 20 
10.69545 14568813.02 6139300.57 21 
10.70715 13993321.91 4506535.025 22 
10.71885 28081835.41 9535787.618 24 
10.73055 14374957.24 5019997.606 22 
10.74225 12338250 4095134.444 23 
10.75395 24273692.54 7897618.509 25 
10.76565 35049030.81 11600569.42 27 
10.77735 10628397.9 4205481.585 18 
10.78905 16007367.16 7547000.5 14 
10.80075 15526571.36 6993636.444 19 
10.81245 9514233.342 4085131.829 17 
10.82415 8997418.192 3589597.085 16 
10.83585 18889140.74 6336553.873 22 
10.84755 11997414.08 4198737.761 17 
10.85925 23303377.98 12650505.19 14 
10.87095 9761770.47 4436655.104 18 
10.88265 8744342.68 2734656.177 20 
10.89435 19385664.41 5764237.988 28 
10.90605 17145924.02 9430197.685 14 
10.91775 12237713.54 4451114.366 21 
10.92945 18382137.32 7353262.723 20 
10.94115 8521973.584 2630248.66 20 
10.95285 4986526.847 1562667.483 15 
10.96455 11521114.69 4210701.756 19 
10.97625 8837450.002 4373171.611 11 
10.98795 7090144.648 3434647.331 13 
10.99965 16219694.65 10072321.66 9 
11.01135 13725120.95 7221504.609 14 
11.02305 25956951.44 12357950.32 13 
11.03475 11671617.79 5544806.064 12 
11.04645 11335007.07 3486381.882 19 
11.05815 11711327.19 4565589.157 16 
11.06985 6132245.775 2031194.018 16 
11.08155 16615545.36 6466396.134 18 
11.09325 9862182.58 4006850.877 14 
11.10495 20629331.32 6999887.539 23 
11.11665 14717751.48 6710944.139 12 
11.12835 11716564.96 5980881.632 10 
11.14005 10345765.92 5031290.72 15 
11.15175 15372883.44 4851036.909 19 
11.16345 12006581.83 4989926.606 20 
11.17515 13963240.52 4866367.75 24 
11.18685 7497097.023 3022273.087 15 
11.19855 10925717.37 6785759.184 10 
11.21025 3869832.852 1568544.388 10 
11.22195 9456606.685 4042039.037 15 
11.23365 5988678.16 1729761.162 15 
11.24535 11470594.74 4028428.109 22 
11.25705 11486515.01 5413728.641 16 
11.26875 3500405.326 2056032.55 7 
11.28045 17141932.89 7889648.405 14 
11.29215 15423794.09 5304290.213 16 
11.30385 35678920.26 16473432.33 12 
11.31555 29234869.78 13232913.1 16 
11.32725 7917228.992 4038883.341 10 
11.33895 13534571.43 7099607.373 16 
11.35065 16769330.18 4507557.573 27 
11.36235 10250247.97 4003503.047 15 
11.37405 9225452.46 3672785.192 11 
11.38575 12416730.48 4815442.733 14 
11.39745 8202710.724 2676424.19 15 
11.40915 8324983.299 2988947.554 15 
11.42085 8558463.19 6811834.69 7 
11.43255 6596555.06 3294146.832 10 
11.44425 6810162.196 2926568.038 11 
11.45595 4051119.487 1413304.312 13 
11.46765 9707308.539 3960948.862 18 
11.47935 7581169.645 2571117.253 16 
11.49105 9099464.419 3928094.9 12 
11.50275 7910714.029 3260981.036 10 
11.51445 24390850.66 11162966.26 15 
11.52615 12409737.39 8469817.878 10 
11.53785 10205792.62 5229248.306 12 
11.54955 13060331.79 5598254.149 17 
11.56125 4057993.725 1547153.904 11 
11.57295 9958378.674 4250541.885 14 
11.58465 11070751.94 4354255.584 13 
11.59635 9493303.112 5627516.972 12 
11.60805 2912462.959 1240842.958 8 
11.61975 22859758.35 10044393.69 19 
11.63145 10382285.47 5233739.828 12 
11.64315 15760984.57 6537985.959 18 
11.65485 4636551.785 1862298.368 11 
11.66655 9320969.793 6013412.895 8 
11.67825 21533372.78 8918282.609 16 
11.68995 13613512.44 5987832.127 17 
11.70165 6345589.615 3696959.689 7 
11.71335 17261926.44 6784142.795 17 
11.72505 6964038.099 2098749.85 16 
11.73675 11667128.8 5145811.025 17 
11.74845 12875077.55 5294462.12 20 
11.76015 4566134.984 1318043.112 16 
11.77185 18877012.22 11511286.63 15 
11.78355 22839469.64 11265626.96 20 
11.79525 7362793.796 3451556.899 8 
11.80695 11995276.44 3631421.507 20 
11.81865 20567125.84 9719577.156 16 
11.83035 5979167.72 2587082.376 10 
11.84205 11481193.96 6301917.71 10 
11.85375 4430589.208 1851425.179 7 
11.86545 9130367.469 4374039.684 16 
11.87715 10309515.98 3358455.238 14 
11.88885 25950372.85 12345847.88 14 
11.90055 10560136.18 3278262.967 20 
11.91225 3862137.627 1229256.455 12 
11.92395 7392839.995 4532333.346 10 
11.93565 9340796.852 4288280.592 13 
11.94735 11534958.86 4165807.859 19 
11.95905 8778831.55 5320803.419 11 
11.97075 12726351.41 6100358.43 14 
11.98245 19317974.43 7672172.615 13 
11.99415 9691494.731 3758878.084 15 
