# Format: McCode with text headers
# URL: http://www.mccode.org
# Creator: McStas 2.5 - Dec. 12, 2018
# Instrument: ILL_D2B.instr
# Ncount: 1000000
# Trace: no
# Gravitation: no
# Seed: 1570825006
# Directory: ILL_D2B/0
# Param: lambda=1
# Param: DM=0.541196
# Param: Powder=Na2Ca3Al2F14.laz
# Param: RV=4.19586
# Param: L1=16.05
# Param: L2=2.645
# Param: L3=1.3
# Param: verbose=1
# Param: ALPHA1=18
# Param: ALPHA2=11
# Param: ALPHA3=5
# Param: ETA=12
# Param: THETA_M=67.5
# Param: TILT=0
# Param: SM=1
# Param: Dheight=0.3
# Param: coating=0
# Date: Fri Oct 11 20:19:44 2019 (1570817984)
# type: array_1d(40)
# Source: ILL_D2B (ILL_D2B.instr)
# component: D2B_Mono_Lambda
# position: 0 0 15.95
# title: Wavelength [Angs] monitor
# Ncount: 1000000
# filename: D2B_Mono_Lambda_1570817983.L
# statistics: X0=1.00003; dX=0.00577008;
# signal: Min=5.41545e+07; Max=5.81519e+07; Mean=5.66268e+07;
# values: 2.26507e+09 5.69154e+06 188019
# xvar: L
# yvar: (I,I_err)
# xlabel: Wavelength [Angs]
# ylabel: Intensity [n/s/bin]
# xlimits: 0.99 1.01
# variables: L I I_err N
0.9902501186 55666768.42 886216.6435 4674 
0.9907501125 55677619.17 886021.3554 4678 
0.9912501064 56096769.6 892576.1261 4671 
0.9917501003 57279395.3 901728.887 4781 
0.9922500942 56269101.96 893690.0347 4682 
0.9927500881 56497551.06 892445.7583 4799 
0.993250082 56881964.08 898094.2336 4724 
0.9937500759 54502417.55 878661.9801 4576 
0.9942500698 57047402.99 900135.1966 4751 
0.9947500637 56748264.18 902255.5194 4697 
0.9952500576 55675030.54 890348.5344 4648 
0.9957500515 54154549.34 874778.9394 4571 
0.9962500454 56444855.93 897279.7477 4732 
0.9967500393 57432956.15 906619.6819 4769 
0.9972500332 56480648.57 900370.911 4659 
0.9977500271 57227027.18 904143.1258 4766 
0.998250021 56700256.47 901891.7063 4681 
0.9987500149 57349939.65 907003.2172 4736 
0.9992500088 56424830.74 898105.4545 4708 
0.9997500027 56957553.75 902696.9674 4728 
1.000249997 56572733.24 898332.2659 4737 
1.00074999 56084320.37 895193.3859 4652 
1.001249984 57058791.94 901270.4451 4763 
1.001749978 57101365.16 903350.0826 4759 
1.002249972 54852157.11 884492.4298 4559 
1.002749966 55796374.87 893475.2628 4619 
1.00324996 57614210.15 909563.7484 4767 
1.003749954 58129800.24 918646.3206 4741 
1.004249948 57253242.32 905909.8184 4722 
1.004749942 57315707.26 905946.4823 4755 
1.005249936 56360751.5 899429.0121 4687 
1.005749929 56893296.34 904101.9261 4724 
1.006249923 57621086.85 909675.7403 4746 
1.006749917 56484053.58 901296.7827 4693 
1.007249911 58081040.52 915976.2689 4757 
1.007749905 56074551.97 899101.4381 4634 
1.008249899 56627424.29 903887.7344 4635 
1.008749893 56861017.12 907661.3815 4657 
1.009249887 58151894.41 918227.9179 4734 
1.009749881 56624868.76 904535.7616 4647 
