# Format: McCode with text headers
# URL: http://www.mccode.org
# Creator: McStas 2.5 - Nov. 19, 2019
# Instrument: /zhome/89/0/38697/TESTS/2019-11-20/McStas-2.5_CPU_MPICC/ILL_D2B/ILL_D2B.instr
# Ncount: 1000000
# Trace: no
# Gravitation: no
# Seed: 1574227412
# Directory: 1
# Nodes: 10
# Param: lambda=1
# Param: DM=0.541196
# Param: Powder=Na2Ca3Al2F14.laz
# Param: RV=4.19586
# Param: L1=16.05
# Param: L2=2.645
# Param: L3=1.3
# Param: verbose=1
# Param: ALPHA1=18
# Param: ALPHA2=11
# Param: ALPHA3=5
# Param: ETA=12
# Param: THETA_M=67.5
# Param: TILT=0
# Param: SM=1
# Param: Dheight=0.3
# Param: coating=0
# Date: Wed Nov 20 00:59:46 2019 (1574207986)
# type: array_2d(40, 40)
# Source: ILL_D2B (/zhome/89/0/38697/TESTS/2019-11-20/McStas-2.5_CPU_MPICC/ILL_D2B/ILL_D2B.instr)
# component: D2B_Mono_XY
# position: 0 0 15.95
# title:  Intensity Position Position Monitor (Square) per bin
# Ncount: 10000000
# filename: D2B_Mono_XY_1574207984.x_y
# statistics: X0=1.23422e-05; dX=0.013177; Y0=-8.75341e-05; dY=0.0852192;
# signal: Min=754288; Max=1.83264e+06; Mean=1.41604e+06;
# values: 2.26566e+09 1.79953e+06 1.88203e+06
# xvar: x
# yvar: y
# xlabel: x [m]
# ylabel: y [m]
# zvar: I
# zlabel: Signal per bin
# xylimits: -0.0249997 0.0249997 -0.149992 0.15
# variables: I I_err N
# Data [D2B_Mono_XY/D2B_Mono_XY_1574207984.x_y] I:
754287.9464 878780.4076 895819.5593 950560.3888 1086617.587 1141882.232 1248484.135 1174613.965 1320187.373 1332776.568 1329287.235 1404048.602 1533451.797 1458406.771 1473046.857 1578365.335 1615599.081 1514119.156 1573411.175 1565575.406 1585642.03 1536765.938 1533379.94 1540927.567 1493014.173 1536984.618 1430093.897 1448912.418 1474390.67 1398882.372 1367291.596 1347512.876 1236193.668 1146429.544 1165349.375 1082064.61 1020760.104 891862.3716 881244.2555 785658.8721 
827535.3959 834743.3506 982403.1324 1133881.869 1098558.292 1171303.321 1170785.546 1314993.055 1328690.522 1376744.539 1342617.882 1478533.183 1506090.227 1535197.303 1576452.804 1555943.498 1468452.988 1514349.919 1578142.588 1577504.403 1599356.898 1585933.119 1636605.071 1586859.367 1581097.985 1471788.42 1446513.708 1486744.8 1387958.402 1400429.308 1355936.703 1417653.009 1363362.752 1229399.498 1195975.941 1117677.38 1109066.361 902834.4246 849236.4353 787696.9547 
837416.1362 895182.1612 997570.4253 1100905.021 1176004.77 1135816.88 1341994.365 1285703.755 1349899.666 1354697.073 1461133.082 1450558.942 1470102.291 1491957.501 1616403.537 1617727.375 1597878.774 1640339.428 1589769.581 1577205.664 1615204.31 1666958.327 1548943.052 1622309.415 1538569.335 1484539.261 1620441.014 1597371.282 1413352.438 1443146.392 1342089.134 1418521.419 1308851.743 1222217.97 1157674.217 1127808.176 1130671.274 1061873.127 873860.9953 820537.7821 
863033.4901 914868.9235 973632.1731 1105543.043 1159330.224 1190970.296 1222652.706 1369055.352 1322573.224 1509982.152 1437787.26 1439077.301 1615374.397 1582436.242 1553485.595 1605288.862 1742196.724 1699672.046 1580365.688 1620049.496 1591116.982 1654730.929 1612176.327 1556253.883 1690160.551 1634268.569 1560139.536 1562049.482 1567376.112 1412058.517 1440194.215 1293162.459 1342263.727 1309620.222 1179063.802 1186078.587 1018647.059 1002747.804 983400.263 892583.365 
849022.943 905411.1118 974863.3146 1141770.424 1118420.848 1200336.536 1318232.519 1413074.509 1482133.379 1444442.072 1409167.55 1497989.117 1486503.144 1518386.934 1629608.733 1640805.141 1659496.897 1642934.765 1689807.317 1688243.107 1733254.889 1665324.308 1697772.171 1618739.322 1580577.581 1600989 1553705.252 1582880.304 1553311.444 1416763.056 1435827.727 1425315.187 1318300.776 1277655.5 1299189.405 1081659.332 1014933.305 942806.4715 908790.7285 772652.1821 
791768.955 909793.2879 975140.7772 1078331.412 1134819.474 1235771.205 1261379.107 1377037.761 1538769.377 1458094.699 1542544.302 1576416.96 1546866.597 1650343.08 1595895.337 1622305.576 1642975.625 1641753.856 1621339.002 1630050.863 1557997.658 1639003.346 1691418.819 1641722.625 1606950.149 1561074.216 1593493.845 1511643.241 1526231.499 1461083.694 1467831.958 1352859.971 1352284.771 1322668.084 1210329.516 1117579.329 1034936.247 1038111.854 971110.3603 852978.8057 
800885.4131 957389.8476 1036714.834 1021946.706 1171397.515 1210978.118 1267770.995 1340232.965 1423904.386 1438222.802 1547978.242 1568998.559 1641599.07 1699329.791 1602714.27 1726325.989 1794833.427 1630617.364 1667474.605 1698066.979 1742177.485 1652142.177 1655666.369 1613738.931 1603938.815 1592736.67 1565314.298 1598323.399 1548148.121 1478740.883 1395139.961 1446743.762 1288221.8 1221378 1322880.523 1208232.675 1058384.833 1009244.99 912433.4503 860932.5541 
866680.664 967612.8347 1014284.278 1141285.633 1225085.594 1180483.092 1339604.483 1309437.674 1499057.174 1437316.148 1498708.011 1541273.47 1602743.378 1536861.359 1670722.269 1631662.356 1650276.388 1664971.298 1747293.286 1682353.677 1696109.181 1659458.67 1709312.325 1673331.086 1611640.493 1641739.809 1624110.144 1653065.561 1519976.872 1517292.385 1468296.32 1466684.394 1358650.388 1309857.946 1247757.967 1164423.742 1105423.571 1069329.929 895523.5035 804636.2324 
940688.5715 972646.2177 1041182.32 1130229.251 1089284.332 1296119.226 1363212.347 1421078.993 1464176.801 1556080.203 1485074.528 1520668.41 1546929.428 1698272.97 1582953.531 1692583.668 1782863.56 1726174.003 1779018.708 1755291.029 1701878.054 1729690.279 1659092.092 1689961.533 1706145.19 1666031.134 1684016.08 1701958.892 1622278.537 1512233.336 1510856.644 1404029.744 1397744.426 1317821.32 1305472.656 1176390.819 1114631.566 1043039.067 998806.9123 848257.3398 
879632.2039 954543.5206 1041802.408 1113503.913 1139962.913 1272819.263 1244509.453 1340757.159 1475646.916 1508077.143 1603415.907 1621540.666 1570213.984 1587904.255 1677053.485 1716528.492 1653525.562 1688719.95 1766105.518 1738155.93 1705047.783 1695259.236 1738278.501 1651649.558 1636044.066 1559261.087 1664735.748 1640643.75 1639629.935 1564547.466 1542810.834 1548283.121 1476820.313 1433837.376 1275797.453 1148895.708 1130925.457 1111008.91 923248.0347 918748.4726 
878924.1977 936090.8801 1095073.544 1091045.974 1185667.902 1191051.631 1367622.474 1419091.867 1359567.535 1503613.315 1502055.026 1528452.589 1601621.84 1581256.641 1728887.145 1790501.007 1761431.637 1649035.178 1711449.298 1802237.753 1778069.013 1694021.353 1717299.33 1705766.798 1682081.35 1669625.808 1616367.383 1615984.057 1595558.301 1610619.132 1540555.58 1501468.321 1456660.876 1354684.797 1252012.291 1215679.457 1145743.298 1046986.416 979638.9338 871879.3351 
886819.2582 994232.216 1020025.654 1102504.974 1221722.019 1218077.038 1371830.756 1434074.629 1496225.004 1494168.301 1550907.79 1585305.633 1672972.166 1591973.75 1636141.918 1679727.881 1700736.204 1674128.449 1708726.345 1711483.854 1746259.894 1688029.696 1756969.107 1714371.685 1724777.776 1714434.327 1618705.956 1695842.244 1555991.867 1583590.971 1486176.281 1467337.228 1348709.035 1346596.36 1277622.52 1271098.939 1066755.713 1037030.628 998121.5139 899131.8786 
856953.0044 1008015.298 1067966.928 1136465.068 1280655.178 1319642.478 1426856.147 1337861.777 1560635.067 1598690.398 1561230.821 1569017.926 1628826.481 1585512.066 1646580.317 1684734.73 1656779.439 1682626.912 1786014.937 1711293.215 1755065.762 1702578.638 1710645.894 1660717.564 1637558.548 1669260.236 1681710.295 1693003.43 1603158.51 1580023.141 1546535.116 1489628.906 1423793.892 1374909.042 1269688.452 1224193.451 1159998.032 1054392.533 1025228.354 910184.3716 
895272.5132 937440.9256 971647.3276 1140881.818 1183519.991 1334859.51 1303945.295 1383006.233 1468757.977 1459701.285 1525399.422 1682116.989 1641884.819 1647745.056 1667388.133 1713677.996 1714100.687 1736435.593 1803157.622 1665459.279 1704257.169 1664951.64 1774068.697 1691855.808 1704793.605 1680788.867 1689139.907 1578987.081 1592160.567 1473584.713 1480501.95 1376402.361 1437894.202 1339782.359 1267125.96 1242891.383 1128020.665 1056540.169 962919.7521 915608.1152 
899598.4252 949598.3846 1035736.341 1085025.562 1241213.462 1231063.877 1327169.791 1388865.329 1457482.749 1451873.543 1517842.522 1534936.716 1653006.787 1724800.519 1708700.711 1640528.568 1729142.421 1780036.668 1799803.748 1718638.095 1761488.634 1728992.504 1772779.511 1692708.177 1733051.3 1704625.047 1664778.303 1612001.594 1548486.861 1546175.717 1552629.742 1391671.885 1414403.628 1393963.019 1291738.412 1202583.713 1171257.985 1049899.354 960117.5293 852880.4219 
906782.7748 975423.5465 1074262.129 1096595.136 1075155.153 1281938.665 1323390.675 1403956.722 1462206.638 1482831.282 1580625.098 1586531.548 1691288.837 1716491.011 1747346.019 1682318.888 1827953.38 1760755.531 1799812.382 1711034.031 1762600.745 1781932.933 1779885.255 1685310.486 1803368.261 1766878.362 1652190.772 1668575.08 1643493.868 1581802.534 1460747.999 1433716.972 1416594.76 1434761.676 1277724.639 1189175.34 1178580.16 1106415.792 999573.503 940941.9558 
941864.8251 1014402.189 1037884.336 1192529.642 1229118.001 1325273.586 1388542.369 1408885.362 1476081.716 1567205.776 1593132.837 1624348.251 1622150.85 1614898.575 1616677.115 1705349.853 1689355.525 1717563.953 1796249.582 1832638.546 1693141.14 1763470.725 1691107.59 1753271.827 1725111.819 1673093.845 1758661.637 1661808.886 1662098.853 1671714.066 1550127.196 1381108.585 1461875.315 1409922.142 1237264.717 1178946.683 1216968.258 1003194.243 1002920.63 886578.1312 
890426.398 937706.2109 1030834.049 1148821.129 1176922.18 1314722.426 1387975.573 1393494.546 1373687.071 1544829.432 1623480.121 1675664.598 1682505.131 1619414.184 1723821.092 1649399.668 1729757.24 1727313.18 1758714.579 1711127.57 1688700.497 1807702.422 1742848.352 1758427.705 1728094.082 1747998.733 1604499.295 1630447.519 1628667.985 1566731.952 1482352.747 1447826.663 1387725.082 1336445.273 1292936.906 1235854.555 1141069.272 984526.1932 1035897.702 886814.8934 
919421.747 970192.2354 1011990.68 1210244.873 1202180.957 1275131.397 1410983.222 1446924.312 1486060.574 1553567.777 1675793.647 1587400.289 1681874.623 1656164.725 1722130.716 1687477.434 1789899.161 1786223.197 1738688.2 1777804.766 1717559.14 1768143.28 1650226.724 1691052.333 1683286.565 1646231.85 1701223.704 1631900.059 1651026.088 1601281.392 1557217.677 1570325.439 1394467.75 1281605.711 1312625.809 1302811.363 1156653.609 1043177.426 1051629.068 879695.6481 
837653.4664 983238.0684 1174863.421 1147855.279 1229961.633 1268132.799 1415324.068 1417224.418 1501231.53 1483356.611 1536165.478 1650698.556 1560212.298 1627835.59 1695871.898 1689634.665 1755442.189 1728030.365 1796591.777 1822609.951 1698865.449 1701598.202 1737551.373 1751645.038 1718476.316 1654734.734 1636400.169 1589438.377 1560489.109 1572857.394 1557267.165 1560696.641 1462470.051 1476196.36 1202682.93 1272882.789 1179985.092 1089529.082 971249.6369 864383.7592 
845155.9289 962483.0702 1093729.878 1174494.839 1158349.792 1260075.908 1422463.99 1465699.183 1465295.311 1459751.667 1440771.238 1683334.689 1674225.546 1664661.971 1678127.231 1704935.111 1741707.129 1790627.264 1701622.232 1757583.498 1689604.267 1777180.098 1723111.031 1739729.365 1784023.27 1676291.52 1589637.748 1636600.409 1533801.668 1421233.724 1538823.097 1493387.99 1403428.897 1390313.155 1316254.915 1249538.427 1142255.477 1049148.205 902599.6019 917310.8067 
900237.205 1003348.474 1097857.886 1176013.771 1232521.632 1303890.936 1394440.395 1399444.185 1475641.417 1558678.464 1525314.26 1737985.256 1645142.943 1713400.659 1733082.396 1788029.141 1655685.783 1804179.336 1761128.216 1689761.969 1717706.027 1719835.88 1639262.792 1733687.435 1768052.601 1670033.518 1620754.868 1610508.523 1643169.932 1586139.294 1532746.943 1512430.343 1515904.845 1345626.8 1236929.031 1256694.571 1153632.837 1080229.522 1047531.957 889490.7822 
895690.0728 966942.321 1049209.909 1190030.347 1226507.338 1266227.569 1351645.298 1449639.961 1443786.408 1454259.021 1540561.352 1657573.098 1660496.367 1641523.986 1681650.107 1617590.279 1806848.489 1699316.94 1760759.425 1744234.583 1799640.104 1772052.729 1725412.974 1682889.129 1721255.952 1759025.848 1754522.396 1612060.08 1647618.909 1602523.552 1550962.227 1486629.378 1444607.517 1325580.17 1326509.314 1158931.02 1195504.37 1110144.061 926028.2891 879880.0808 
887575.2414 899406.4327 1055171.32 1070346.687 1172734.726 1320153.974 1354197.753 1495698.456 1329021.89 1531908.52 1481841.107 1591191.072 1645714.982 1605347.555 1647983.662 1743118.4 1769602.535 1740445.458 1700839.673 1780217.038 1751765.473 1726699.491 1735744.068 1703941.392 1723135.793 1701774.974 1620580.783 1627649.187 1686251.283 1498898.908 1522275.117 1385685.145 1471394.363 1380692.607 1267619.162 1180225.636 1160394.039 1095718.107 1007938.634 867223.7049 
840242.4024 1000127.419 1039009.347 1154959.615 1158110.383 1299098.051 1396433.791 1368370.547 1557733.524 1554713.848 1549220.09 1674702.356 1657306.086 1665513.625 1633985.115 1693844.989 1806194.77 1810306.976 1759100.147 1754686.186 1769384.692 1625984.82 1832119.997 1706329.2 1744420.87 1738220.223 1606035.812 1560870.867 1562808.726 1596060.896 1533269.285 1401783.24 1442045.891 1370223.824 1239257.368 1221888.666 1152448.007 1010848.854 965016.4984 926266.7807 
854918.7451 1027766.294 990785.621 1145557.137 1240677.866 1278744.128 1304451.386 1380604.875 1476332.872 1445920.479 1575033.421 1626927.031 1538824.5 1708749.549 1707951.147 1743194.948 1732563.26 1692083.32 1720391.919 1757501.237 1786692.564 1764977.098 1776616.321 1782752.166 1624490.307 1694422.782 1710649.102 1619925.926 1601609.708 1550811.505 1454128.144 1488901.563 1402185.987 1383551.225 1286334.091 1180576.52 1089440.687 1072582.945 953469.4333 889914.7982 
833129.5961 873960.7592 1058937.556 1102242.739 1251792.028 1315509.383 1309397.503 1450113.754 1576958.834 1535373.514 1603247.453 1582970.622 1652675.599 1663102.175 1722292.438 1666157.64 1652658.026 1720146.916 1734334.267 1712778.104 1829289.656 1727751.654 1624170.048 1661133.524 1793774.093 1584606.345 1738979.779 1659706.006 1613424.935 1505003.399 1518357.718 1482761.704 1373815.201 1385018.679 1257491.113 1247195.211 1132888.097 1035681.669 964832.7909 866761.3351 
865467.0491 1049749.361 989717.7591 1077962.156 1243458.282 1233563.742 1371849.132 1341544.21 1433646.297 1557950.673 1526356.053 1645795.999 1569768.49 1641824.851 1682503.254 1659362.018 1669925.733 1725399.502 1730067.262 1818208.863 1804124.988 1763158.363 1656621.323 1687481.251 1688378.46 1651929.644 1550619.589 1591061.533 1620562.934 1566636.772 1429912.093 1467947.696 1431923.159 1333786.707 1294398.703 1121771.998 1140655.631 1082792.026 1034783.59 861002.4743 
870329.9226 992040.4045 1031971.709 1158414.11 1157751.475 1360690.16 1358428.395 1421546.109 1435976.78 1591096.033 1589961.237 1559546.123 1531320.948 1668072.037 1705133.314 1718877.752 1764028.124 1682352.434 1636227.151 1661336.473 1808768.07 1768974.492 1784626.256 1750004.009 1720973.143 1662697.917 1645695.219 1605731.491 1524713.327 1596975.018 1483793.024 1481588.064 1434074.791 1337253.025 1191663.584 1281015.017 1117692.318 1094507.056 979511.5129 866720.2946 
895335.6129 992009.3371 1067979.909 1097313.268 1166996.227 1266295.822 1344535.207 1474871.011 1488003.373 1460292.93 1607737.114 1485853.334 1543498.508 1578807.916 1646905.326 1593191.003 1716826.455 1671555.656 1741540.512 1740758.969 1709876.577 1786578.511 1594712.19 1664828.031 1707690.853 1694109.319 1693096.929 1546983.825 1531348.271 1543441.202 1538719.091 1472432.48 1380540.44 1290841.971 1269432.65 1227617.578 1133438.151 1053609.501 990537.1478 908622.8813 
866612.5986 950165.3944 1038960.511 1131963.172 1250231.524 1247953.685 1352343.678 1442902.575 1409347.337 1524983.377 1577211.309 1600067.27 1577167.151 1559842.085 1614351.998 1729041.792 1670202.384 1764241.254 1701977.303 1708090.468 1707017.98 1728137.364 1710177.36 1762948.288 1645131.707 1658813.776 1705884.032 1632944.301 1627045.685 1483505.36 1458364.712 1406319.226 1418121.313 1318214.799 1237123.86 1181620.077 1112559.777 1002288.92 999148.4613 911056.4291 
885827.3944 933675.8835 1036845.788 1081822.53 1210755.767 1258218.559 1250644.534 1379767.206 1416084.529 1414945.55 1519605.656 1511664.952 1575503.656 1668378.307 1673218.741 1710480.629 1658960.392 1579843.155 1773198.918 1703338.236 1726150.257 1681690.371 1733069.167 1639767.09 1643099.028 1643733.486 1627501.912 1587302.14 1544891.3 1596339.981 1558173.006 1385044.516 1398056.612 1261790.989 1235185.065 1231759.221 1041915.269 978904.4131 947268.1259 862828.8705 
888932.2876 986345.5914 976926.925 1062481.094 1147359.791 1222923.637 1395202.969 1296564.347 1461276.15 1480303.444 1506412.655 1558044.635 1559773.851 1573214.901 1620167.437 1569433.867 1686745.469 1789369.717 1630233.229 1729798.945 1656500.748 1677015.148 1748739.165 1638071.012 1638627.91 1719137.758 1571610.277 1654460.831 1557371.386 1542056.173 1452438.6 1473684.992 1449206.825 1305702.801 1271019.938 1117289.878 1097011.83 1046813.511 918531.3534 877159.4587 
794113.0484 954184.4559 1003562.096 1002806.952 1200258.322 1196370.188 1326703.719 1383486.525 1502299.922 1545972.247 1548243.442 1474980.025 1621781 1613855.211 1701667.525 1617797.95 1663552.163 1752129.512 1672912.839 1658227.605 1574617.216 1693037.27 1627679.372 1632154.934 1593731.958 1626375.099 1501072.466 1553199.677 1538653.055 1568582.227 1449609.461 1487322.624 1380223.55 1250331.475 1285525.279 1168030.852 1121745.436 1045116.689 867088.4542 810876.759 
830142.9291 947836.326 979844.6391 1096857.517 1145310.844 1284220.3 1293146.545 1422928.607 1364808.438 1463499.389 1518254.001 1508181.591 1612619.927 1652718.241 1644932.342 1563660.619 1651783.522 1696278.419 1719323.026 1623878.777 1622573.054 1646982.31 1716431.447 1756655.602 1631330.665 1585870.143 1591426.121 1611096.445 1595647.788 1518708.902 1515412.414 1341090.022 1370800.838 1273067.281 1227116.73 1091434.735 1099410.59 998108.6303 849381.4105 827252.5528 
844492.8641 925450.9592 989636.796 1140018.815 1183207.366 1222919.316 1261001.019 1285691.255 1395875.403 1388303.414 1459832.819 1477249.003 1550760.648 1640200.91 1566383.491 1640798.909 1665143.196 1637849.959 1599177.673 1670353.913 1702588.613 1631588.256 1631180.582 1560147.39 1552675.327 1587447.971 1607650.238 1556637.747 1528117.171 1483949.431 1380663.653 1430316.223 1269029.859 1299730.313 1140570.804 1167582.25 1075100.973 1043249.268 877823.1195 866790.973 
852941.4664 878837.1837 1071867.987 1078437.892 1142492.761 1225149.486 1251399.689 1287607.807 1371652.396 1407579.614 1399509.347 1458577.563 1548778.572 1584733.762 1586743.682 1551586.153 1518496.475 1710671.777 1651702.095 1597508.447 1629347.439 1720276.369 1722688.377 1655970.797 1541499.793 1634914.05 1543682.732 1598405.614 1552410.604 1431797.577 1499742.735 1368529.38 1354573.626 1280460.981 1212743.408 1156709.241 1064629.205 994016.784 952902.7092 781531.341 
771118.8009 923175.1844 984913.4059 1003701.486 1229009.034 1172547.447 1307712.409 1342955.781 1370401.03 1360284.092 1453167.366 1423147.277 1489908.033 1523375.901 1569748.69 1566564.48 1543482.907 1624439.328 1625617.435 1591803.502 1646215.579 1721090.285 1607960.397 1566091.229 1544187.801 1594756.079 1521053.593 1527073.422 1509065.336 1531019.535 1381701.4 1389841.685 1340618.685 1189064.034 1173146.092 1081186.609 1070281.411 947444.3156 859565.7678 839753.3928 
774312.244 835602.205 942961.2759 1018286.062 1026418.938 1164075.238 1167505.991 1349041.832 1336665.008 1401877.376 1437624.477 1444678.364 1460283.379 1544353.491 1562914.78 1578013.374 1546459.278 1609509.874 1571855.312 1588089.914 1521089.262 1579122.229 1561067.846 1536380.891 1654902.417 1586528.328 1490298.632 1441104.368 1420245.66 1400697.553 1397392.747 1326083.37 1208652.041 1191255.592 1194106.548 1091088.571 1029539.378 932938.9684 923062.7694 865056.5202 
767122.2277 847929.9607 939213.0278 1035584.426 1093320.074 1195438.754 1123067.583 1192570.606 1266870.185 1396582.273 1377907.619 1411559.663 1435213.754 1426829.643 1484234.55 1500410.139 1548064.213 1568151.41 1540519.638 1477894.51 1601365.457 1608290.045 1467070.243 1535910.965 1607928.176 1506699.676 1434723.598 1461908.729 1398203.256 1353705.821 1354746.148 1268957.901 1269706.989 1186039.929 1075616.936 1136581.511 947575.4329 972375.9821 860465.1712 788980.1409 
# Errors [D2B_Mono_XY/D2B_Mono_XY_1574207984.x_y] I_err:
30656.69097 34209.15212 34911.92702 36856.09969 39344.2082 40967.71475 43009.0003 41765.2307 44211.10665 43862.61574 43787.03435 44866.26341 47300.16758 45850.84616 46091.38329 47576.50721 47661.15119 46092.22048 47065.81952 47061.26383 47167.47581 46618.04122 46760.37836 46763.66424 46254.22114 47029.89244 45098.0789 45703.96663 46204.83911 45036.89217 44505.6568 44086.11817 42677.61359 40993.65287 41093.84862 39304.08114 37868.01112 34922.35239 34277.02428 31817.1508 
32369.14739 33116.20871 36830.72638 40419.22158 39799.77313 41399.47476 41499.32034 43889.69211 44250.2311 45153.49114 44095.0299 46624.70826 46832.1988 47197.79587 47660.99439 47312.91688 45670.14576 46338.78297 47447.04028 47305.139 47666.42225 47351.18908 48216.27282 47378.40609 47540.02035 45948.80302 45743.30118 46356.15553 44745.45833 44966.38607 44669.53421 45748.53601 44550.89788 42319.77315 41764.58654 40251.75413 39910.39959 35459.11939 33262.97151 31364.97157 
32538.9581 34650.8954 36986.80187 39400.43042 40960.19236 40488.56178 44831.75407 43684.30137 44483.50802 44396.66435 46352.13252 45947.54343 45811.83302 46239.26418 48350.47852 47811.94549 47843.57549 48471.6494 47488.77159 46956.40629 48156.2756 48806.08127 46627.55912 48141.92787 46832.72122 46113.90547 48074.55045 48267.61499 45411.97948 45983.53706 44317.5434 45593.76138 43606.21214 42342.89378 41279.16613 40074.22842 40315.52987 38498.6359 33889.88057 32109.58682 
32839.48998 35106.37038 36690.42246 39548.27716 40688.71051 41512.59216 42112.4009 44899.85794 43990.98244 46846.57333 45674.46859 45510.87905 48485.14607 47922.67504 47219.161 47815.80658 49884.30208 49304.86579 47012.65342 47775.45942 47267.22978 48555.94737 47498.84023 47027.52027 49349.2766 48643.06909 47705.75833 47123.84719 47535.25407 45469.94879 45951.41447 43614.39657 44156.37201 44024.62711 41207.90084 41411.04441 37887.79772 37026.55185 36233.00814 33926.47613 
32865.83085 34483.99305 36542.99432 40391.92109 39928.14898 42006.97024 44233.70662 45744.00494 46620.75265 45992.46132 44993.47716 46526.57551 46258.62236 46308.0036 48749.98371 48289.38213 48664.23361 48230.56398 48885.81933 49038.7853 49733.43398 48906.76158 49313.07916 47941.9326 47418.59798 47957.94037 47409.55948 47860.60852 47479.24056 45255.84042 45655.25096 46056.65904 43809.92624 43145.19436 43334.36517 39721.6259 37732.35803 36133.54902 34520.29717 30778.9879 
31797.46965 34771.41093 36628.15589 38830.30904 40364.57955 42084.12508 42688.08399 45116.46891 47554.67614 46250.10331 47385.41429 47994.63981 47275.64345 48660.03249 47678.82555 47965.55918 48220.87993 48185.57476 47839.08611 48141.9617 46647.41661 48225.91484 49119.23578 48508.06934 47866.40504 47379.01687 47979.89686 46359.49904 46859.3678 46233.22455 46521.73833 44496.79066 44503.38818 43979.40332 41802.45611 39928.57802 37954.90073 38104.37831 35992.01455 32726.00599 
31673.84529 35818.53241 37927.24101 37969.59769 41176.7379 42056.47879 42981.60396 43975.6839 45644.43225 45904.38595 47584.17375 47702.42931 48725.88242 49478.4088 47986.01912 49754.98978 50640.28877 47935.67415 48497.55682 49105.20261 49581.57856 48311.96923 48353.11375 47985.09515 47653.48614 47679.34583 47595.83122 48123.64303 47441.67517 46428.85101 45370.30042 46020.32695 43500.92826 42193.76034 44057.79908 41479.07233 38670.47165 37425.56812 34585.62074 33204.38602 
33052.26163 35926.70816 37335.3714 40043.89029 41985.34964 41455.27458 43968.16599 43803.05619 46887.93006 45704.80809 46969.82614 47517.93701 48136.93986 46920.174 49025.88563 48175.24404 48481.92473 48541.78801 49862.80631 48710.06291 48835.204 48241.18087 49287.69849 48834.56182 48132.35857 48704.00275 48062.38764 48967.07657 46821.77539 46932.26512 46388.1668 46616.14445 44653.32369 43816.84317 42647.93496 40918.85726 39537.64569 38718.24517 34402.5882 31891.03934 
34611.46365 35636.92488 37856.39525 40101.17009 39488.58296 43667.35256 45041.91298 45831.81341 46446.54307 47679.86851 46465.92801 46647.56506 47048.34025 49350.4862 47723.71728 49321.0438 50292.58786 49627.84286 50197.64675 49651.51469 49325.89991 49414.11789 48620.77763 49253.15407 49519.70798 48750.86051 49270.01047 49832.55348 48535.97101 46874.9465 47149.74665 45285.35616 45294.06874 44073.89896 43611.08024 41223.29824 40078.98241 37770.85862 36584.15894 32569.77571 
33188.95039 35545.58379 37740.47405 39461.34928 40668.24717 42956.40416 42430.74413 44335.77535 46778.78545 46952.57452 48561.30451 48626.65104 47669.25717 47813.75053 48927.44051 49463.34006 48410.79618 48683.83143 50192.4033 49513.67803 49092.66116 48974.09371 49753.37249 48318.38019 48158.862 47520.57353 48784.85437 48747.78033 48984.3762 47813.49035 47765.77287 47688.84613 46642.56667 45749.07756 43018.7297 40738.91465 40001.11522 39431.11256 35130.31264 34057.57777 
33286.91103 35134.14798 39344.52089 39420.85063 41364.71266 41216.08639 44637.02054 45692.65757 44097.72669 46970.81886 46572.632 47134.43733 48124.5064 47658.78757 49675.98972 50845.02702 50153.35355 48096.90457 49604.98817 50485.71555 50092.15197 48806.80823 49559.21651 49342.80251 49057.19865 48780.3112 48361.36878 48062.26793 48312.2388 48713.78372 47422.53721 47017.01424 46247.09632 44710.89693 42402.39867 41956.06234 40391.75425 38153.65379 36047.37116 33585.88109 
33676.46701 36514.05233 37469.46829 39441.71255 41993.60407 42178.55377 44736.51242 45900.8168 46652.65993 46972.39444 47635.2047 47977.15113 49104.22927 48080.48057 48452.33978 48538.426 49054.90405 48781.86316 49217.13108 49305.19459 49848.27195 48781.35652 49833.09731 49631.32687 49400.78152 49943.14741 48421.43634 49711.41036 47296.67841 48157.28306 46657.56087 46057.63826 44647.53206 44123.25742 43256.05586 42837.65709 38655.25812 37978.86379 36285.09125 34072.66133 
32696.43498 36508.4994 38323.72345 39889.70062 43262.01991 43761.56456 45734.72023 44558.29737 48054.21476 48072.78658 47472.19334 47802.89798 48611.94835 47761.73202 48595.09858 49096.68969 48622.38395 48808.49667 50441.29477 49367.86768 50029.34684 48981.72027 49293.10831 48524.75138 48126.05602 48892.02256 49133.08422 49711.08392 48404.05778 48021.18675 47659.24116 46842.10571 45724.2461 44763.20773 43166.10292 41862.56257 41034.24554 37856.9773 37234.81508 34171.8663 
33542.3719 35447.67162 36496.1954 40324.79459 41107.69441 43936.59554 43619.62542 44805.9226 46389.92163 46025.46874 47250.27357 49491.76263 48374.13323 48722.22015 49059.51622 49527.04514 48971.61578 50001.89784 50800.38344 48287.99146 49044.21181 48578.16623 50139.0904 49072.19995 49229.05467 49092.90453 49198.41516 47697.13088 48009.31669 46127.52137 46583.62893 44800.32543 45922.71725 44075.15401 43057.2236 42163.95631 40011.29744 38125.41655 35607.78695 34304.26388 
34252.21674 35458.67194 37687.79081 39421.95676 42411.49602 42209.59272 43953.90593 45159.98699 46214.22196 46133.91234 46955.46886 47231.10366 48678.9617 49797.92858 49572.1469 48284.70032 49635.76758 50397.4704 50562.45714 49748.45169 49981.94395 49621.90839 50243.49866 48831.22783 49780.13986 49343.22598 49031.82879 48296.70021 47795.63863 47374.90682 47826.73911 45146.57959 45741.26587 45215.75955 43180.05432 41698.70834 40864.22329 38218.27306 35758.25455 32817.61949 
33955.50003 36059.95786 38625.01382 39234.28602 39039.92332 43182.07309 44433.24058 45491.32097 46348.24687 46615.12163 47834.92726 47875.47136 49576.31814 49830.17929 50099.02775 49066.1934 51348.42697 50000.4198 50736.90944 49069.63165 49545.64935 50280.69334 50410.57335 48793.82154 50953.27545 50291.8209 48668.01553 49126.14278 48957.68137 47879.39688 46323.97709 45847.50356 45501.33685 45825.10666 43002.65421 41434.09623 41223.10149 39140.51753 36421.44827 34647.24817 
34609.35875 36895.6569 37791.22164 41141.65733 42260.87536 44084.43405 45225.93579 45634.98138 46524.56627 47870.3548 48378.0082 48737.36329 48376.28135 48410.80265 48074.38468 49260.51784 49112.3485 49310.15768 50482.67304 51219.47748 48804.63197 49585.32553 49019.71219 49930.97939 49736.68832 48715.93066 50686.76394 49152.44229 49526.51403 49384.8926 47993.7432 45260.61782 46284.81651 45539.54255 42635.02062 41288.45917 41531.81888 36820.48119 36534.4137 33475.87243 
33308.66736 35341.94339 37788.26284 40297.66088 41094.60319 43808.31022 44741.83287 44735.9076 44734.94453 47504.30487 49111.41131 49340.09598 49168.87398 48226.73441 49430.08625 48429.98981 49535.49523 49621.9382 49875.4888 49014.10659 48865.60019 50859.81545 49782.54137 50232.79384 49990.22851 50036.32244 48176.62747 48648.03836 48487.88697 47793.26 46775.89888 46214.48636 45303.14098 44220.43493 43690.73595 42215.8303 40226.824 36630.25081 37182.46327 33615.62854 
34260.91782 35763.97157 37209.71093 41608.97079 41660.99254 43288.52283 45530.24206 46220.71624 46677.20082 47690.91537 49457.03446 48050.76565 49602.73039 48957.78097 50131.59971 49043.35468 50369.88159 50130.64918 49540.64986 50022.45324 48920.15788 50111.8501 48166.03471 49049.02247 48776.61837 48682.46077 49866.28042 48506.70988 49009.06959 48261.51235 47794.75087 48211.21544 45018.44209 43445.8759 43421.24985 43875.19481 40701.6122 37928.71826 37263.66915 33372.78939 
32401.88724 36338.11612 40373.07505 40710.4623 42107.4194 42711.87508 45629.4788 45638.07456 46866.47849 46666.99593 47215.37631 49091.21391 47520.3476 48475.39183 49065.15137 48732.91947 49907.31246 49694.56123 50563.30734 50825.86409 48862.16757 48982.84094 49480.78908 50118.41077 49361.22933 48644.422 48464.84191 47942.12313 47654.19032 48157.48945 47596.72833 47960.63792 46158.71819 46555.43989 41626.94612 43128.00972 41261.24878 39280.66456 35513.69234 32930.50012 
32767.65587 35615.48099 38927.97733 40888.04441 40935.21668 43027.94598 45720.87671 46352.08373 46470.21588 46114.35983 45439.86475 49598.00856 49184.57478 48721.32508 49195.39795 49131.71568 50012.86996 50477.21003 48939.34988 49784.36269 48872.11993 50139.87428 49497.57104 49591.26807 50407.92184 48799.03766 47943.76934 48696.65402 47187.24148 45410.85078 47490.84632 46939.12716 45581.9482 45411.08352 43611.61417 42255.63114 39946.90347 38101.25828 34438.74676 34475.58657 
33815.31554 36720.43038 39001.65809 40927.38119 42299.56377 43423.66304 45157.27368 45311.29933 46553.02636 47961.89627 46649.08747 50550.80989 48564.68761 49889.71723 50057.97712 50446.5388 48353.62372 50677.81704 50033.65733 48918.17848 49460.76857 49338.403 47689.62061 49768.24256 50213.24168 49115.23886 48168.70859 48222.81492 48716.80547 47971.49949 47329.80861 47136.41671 47528.65159 44295.18083 42297.01607 42480.66423 40883.74754 38751.97723 37080.88013 33470.37466 
33938.71464 35821.70728 38139.48999 41328.17397 42086.54494 43145.93747 44627.20696 46068.39954 45568.84469 45963.09132 47647.34698 49271.9279 48972.83579 48497.04381 49199.49017 47998.99953 50640.65418 49121.4492 50148.65918 50027.11629 50858.48957 50117.63545 49485.86238 49102.47707 50171.06025 50281.56319 50462.17395 47863.90392 48946.01766 48281.79378 47918.21429 46939.35386 46111.02391 44165.85237 44177.02719 40765.03733 40920.50383 39149.01696 34915.02204 33395.88561 
33477.78764 34459.60083 38263.24418 38832.82029 40827.99521 43935.26439 44571.69623 46924.76477 43939.96507 47561.70606 46656.70952 47948.37086 48640.92928 48179.069 48493.60124 50025.48011 50221.23801 49868.48384 48807.43892 50283.95027 49837.66696 49701.65506 49425.43272 49262.90992 49454.28487 49272.44644 47793.0124 48532.72215 49588.5389 46465.63632 47271.98238 45056.26953 46233.74273 44928.9612 43130.50017 41396.48573 40815.69809 39024.07183 36542.42532 33162.53602 
32611.23234 36398.16537 37635.86005 40336.01332 40716.14264 43461.19234 45562.03362 44726.15842 48190.00799 47633.66294 47541.38819 49342.61105 48582.18771 48870.44335 48382.84297 49240.09993 50824.30286 50919.27551 50177.73781 49760.22134 49955.02754 47413.58628 51078.3171 49161.20019 49732.34494 49898.40311 48172.42871 47618.85138 47695.19966 48133.57447 47364.50406 45331.80756 45838.22003 44677.92288 42894.80796 41797.69926 40785.90364 37047.68559 35511.11076 34279.67202 
32728.78146 37067.9849 36966.69936 40638.88947 42249.19665 43299.53097 43656.56264 44842.70839 46698.51748 45790.99681 47934.42559 48729.85232 46935.38401 49380.19442 49591.58506 49744.7763 49740.25059 48936.93191 49354.64735 49778.03568 50132.30408 50193.85637 50369.73763 50368.54715 48109.12792 49264.4066 49944.26796 48493.91127 48440.71221 47604.06334 46060.99935 46865.15036 45376.45293 45275.59674 43183.29409 41030.34765 38873.38784 38490.33392 36003.60688 33565.90544 
32158.14498 34093.09075 38061.2263 39580.6952 42311.2179 43758.73715 43698.40583 46186.40025 47839.16858 47422.18359 48415.24512 48263.50043 48962.92558 49027.88383 49842.82402 48494.28671 48409.3828 49734.49752 49468.84383 49139.30108 51220.89081 49729.30768 47841.52683 48643.51997 50787.33863 47595.4543 50209.91676 48971.20835 48309.3421 47098.39519 47143.94965 46456.19673 45019.81706 45095.46532 42938.11556 42399.04799 40141.95995 38174.56125 35791.87119 33280.84905 
33246.87037 37906.23625 36914.40403 39050.72519 42308.6523 42092.03561 44974.22361 44345.5997 46139.69256 47692.66641 47342.54545 48929.2053 47374.67974 48448.17373 49260.84888 48698.16354 48702.36777 49437.13102 49689.47608 51177.94987 50492.60762 49827.73941 48600.43444 48837.28762 49079.32276 48596.58146 47185.69134 47826.55834 48730.55526 47595.01904 45796.29899 46267.37482 45641.22261 44229.6291 43392.3586 39931.55062 40020.67181 38645.55173 37485.21249 33272.38805 
33270.12991 36640.1837 37653.00421 40528.85524 40418.66818 44697.30888 44750.22944 45576.52144 46296.12201 48508.91021 48259.20178 47316.05579 46742.54122 49096.25687 49343.74029 49439.32885 50331.6676 49100.29272 48027.13476 48718.2398 50682.83417 50150.17323 50297.63422 50021.56826 49749.36011 48844.65727 48574.72317 47918.13039 46830.01945 48409.65975 46686.63322 46605.80747 46293.5207 44041.60704 41621.41691 43121.13334 39696.79263 38697.92936 35982.86441 32968.03077 
33719.37121 36596.45746 38264.16359 39157.44402 40906.08671 42947.96902 44417.70475 46913.58659 46796.6027 46055.96132 48520.11477 46379.86216 47215.73007 47777.67731 48495.30199 47790.699 49300.07829 48682.68247 49756.42654 49379.7128 49496.60725 50225.88003 47570.68914 48693.07914 49515.77639 49345.89594 49300.55644 47351.651 47069.97791 47372.90385 47358.52257 46400.08646 44956.95536 43338.41633 42879.79794 42062.74327 39911.12348 38249.80049 36463.25437 34036.12639 
32941.24727 35548.87599 37924.81535 40315.31779 42517.08338 42761.35233 44558.25099 46089.69587 45374.14379 47419.27337 48000.9771 48162.39272 47775.55334 47209.9993 48195.09405 49722.2328 48691.99134 50062.28157 49149.20296 49115.92882 48839.38221 49318.14795 49307.02876 49988.83126 48475.48443 49033.19276 49882.41229 48516.15386 48781.07848 46417.82381 46073.85238 45808.38047 45685.7189 43814.5416 42232.81366 41098.26752 39551.59507 37004.67445 36441.80439 34112.25996 
33174.23848 35181.56273 37704.53106 39088.8723 41703.77978 42781.31428 42580.19077 44858.56455 45475.01165 45769.81254 47057.92287 46599.83598 47437.1971 49217.45267 49203.60624 49526.15714 48608.93422 47248.83265 50179.37351 49193.36393 49719.28198 48470.72552 49516.72388 48220.557 48691.20375 48932.83663 48293.17098 48234.23641 47393.47588 48091.49586 47865.52488 44877.13441 45225.36661 43065.808 42367.03955 42363.1667 37880.47364 36622.44962 35036.95557 32920.18418 
33453.98208 36160.83487 36496.58395 38634.54587 40766.60433 42250.01015 45101.14549 43482.49576 46191.9251 46739.80829 46770.17204 47591.42824 47610.55762 47435.63621 48102.66883 47132.56546 48785.26636 50654.41518 47799.50273 49543.65459 48608.04079 48688.53893 49799.23807 47813.82794 48228.04845 49805.93921 47537.36967 49016.3004 47373.89908 47320.45526 45920.84674 46577.53293 46159.6145 43564.60515 42983.35988 40010.20059 39577.40496 37782.97454 34907.48534 33081.83514 
31625.19389 35392.12457 37429.06348 37303.21455 41911.77478 41706.15927 44003.36401 44622.72458 47081.20661 47450.83579 47935.89955 46247.01309 48530.67601 48360.92645 49173.43078 48212.03243 48542.3858 50339.6909 48699.63009 48430.47447 47168.46202 48927.38427 47644.97582 47938.31447 47796.59706 48242.10412 46303.68539 47342.73528 47430.95462 47826.68907 46019.17886 47011.72907 44819.68167 42799.85532 43475.91553 41125.0146 39854.1653 37877.36641 33620.5398 31989.89614 
32240.60419 35980.09403 36684.08632 39219.91438 40495.32959 43330.65636 43593.44658 45351.38352 44568.14924 46374.55348 46840.05628 47004.3936 48509.33704 48768.42438 48853.2101 46966.8431 48323.59777 48825.65879 49031.49813 47993.20925 48108.60727 48293.03765 49345.30057 49912.5782 48276.97928 47621.01751 47797.54208 48268.79381 48292.29386 46861.70207 47134.27117 44129.19367 44961.99943 42906.12612 42078.0527 39391.27291 39514.80862 36940.25358 33013.04853 32337.50872 
32885.66004 34940.74268 36723.47978 40429.81233 41416.50356 42223.22319 42953.88393 43539.3023 45449.12109 45163.75685 46166.36813 46217.89429 47314.89131 48594.67721 47415.24215 48376.70574 48562.70553 48118.62058 47494.26793 48711.67595 49108.12711 48069.66773 48197.96737 47220.21357 47264.91347 47548.56517 47898.54219 47555.77319 47221.88027 46864.48147 45084.50594 46012.54725 43078.99814 43903.18284 40548.53751 40980.70229 39020.57099 38045.18038 33775.13015 33300.51916 
33063.87214 34058.49686 38607.43134 39222.03909 40294.00767 42117.42815 42667.52567 43219.37608 44926.50627 45565.47313 45077.36316 45882.50895 47270.02076 48013.25479 47772.45384 47264.45338 46365.93941 49589.08495 48598.2122 47858.20283 48042.41849 49453.5885 49832.7683 48475.40173 46853.43787 48388.53121 46932.43074 47945.05352 47629.43324 45479.36666 46865.35258 44679.64852 44656.29105 43541.74136 41942.64224 40806.26119 38368.85894 37130.54004 35620.31775 31350.11065 
30951.63377 34910.95547 36634.49121 37647.16327 42300.09946 41405.43007 44076.8324 44343.88383 44866.65433 44397.91932 46091.09121 45693.89246 46355.47736 46887.18495 47239.1571 47200.45896 46819.71385 47873.5736 48090.02199 47328.24554 48152.79435 49485.81141 47875.42932 47658.93615 46952.60704 48015.12818 46764.80668 46822.63476 46727.01862 47154.26342 44749.39538 45400.87128 44135.8278 41635.92908 41067.02941 39697.67571 39096.30226 36311.84595 33583.74954 32650.80537 
31438.37508 33248.98494 35914.25946 38153.86566 38470.6098 41201.63865 41478.71075 44317.80994 44244.76498 45016.18256 45869.1026 45712.26958 46008.0247 47334.88453 47469.3202 47483.81099 46838.8369 47937.11061 47127.42482 47420.21915 46563.8719 47089.59204 46985.46993 46813.37017 48506.95043 47777.37011 46090.03685 45767.02761 45409.80023 45011.06188 45215.76196 44073.67146 42001.39433 41756.61332 41644.32835 39841.88606 38009.26065 35284.50775 34811.78475 33304.19405 
31026.42762 33757.5901 35882.39533 38306.72465 39498.0692 41762.47921 40509.63203 41622.22823 43153.95838 45032.29654 44834.91123 45166.55062 45547.47457 45263.91308 46297.15772 46170.05501 46964.60817 47194.61025 46386.32571 45939.59906 47509.5818 47658.84092 45345.57349 46954.33686 47535.42809 46223.39513 45291.88418 45803.27149 44956.23851 44336.92526 44655.17501 42789.17254 43241.27944 41346.09333 39422.40338 40708.30698 36505.42331 37103.28324 33655.83793 31388.31083 
# Events [D2B_Mono_XY/D2B_Mono_XY_1574207984.x_y] N:
791 854 835 849 973 964 1018 968 1086 1100 1077 1150 1224 1165 1174 1258 1304 1226 1266 1261 1287 1236 1218 1234 1183 1221 1166 1166 1173 1133 1136 1121 1026 959 983 949 919 829 864 805 
853 824 900 994 951 1002 985 1098 1083 1107 1099 1160 1196 1217 1259 1224 1184 1213 1255 1263 1276 1262 1302 1275 1249 1173 1157 1179 1137 1145 1106 1138 1134 1046 1019 961 978 848 848 823 
850 873 933 994 1035 972 1076 1034 1110 1111 1175 1176 1189 1214 1277 1298 1280 1293 1275 1281 1272 1328 1254 1284 1235 1185 1302 1268 1129 1167 1097 1132 1089 1032 960 994 988 973 856 856 
886 878 920 991 1012 1030 1026 1121 1081 1235 1162 1165 1286 1259 1239 1278 1371 1350 1297 1296 1292 1314 1311 1247 1334 1296 1234 1270 1256 1137 1162 1051 1115 1086 1017 1026 934 943 933 885 
875 896 921 1013 1010 1016 1079 1147 1216 1175 1158 1212 1213 1237 1271 1304 1318 1318 1358 1348 1371 1311 1339 1293 1264 1260 1230 1263 1238 1156 1180 1145 1113 1061 1121 929 922 878 916 815 
804 911 912 989 1002 1078 1065 1127 1252 1178 1250 1239 1240 1319 1283 1315 1319 1320 1300 1303 1279 1305 1331 1299 1280 1238 1259 1251 1250 1175 1173 1124 1117 1118 1044 985 954 943 940 879 
828 933 955 928 1027 1047 1087 1127 1180 1165 1239 1257 1311 1354 1287 1351 1434 1319 1333 1357 1398 1330 1320 1274 1285 1271 1247 1266 1244 1194 1120 1178 1059 1031 1125 1072 966 939 908 879 
896 936 956 1031 1065 996 1148 1081 1232 1168 1196 1239 1294 1242 1319 1305 1316 1338 1397 1355 1366 1343 1354 1329 1279 1295 1313 1335 1242 1240 1207 1169 1138 1097 1058 1006 993 969 879 823 
954 961 966 1010 978 1092 1109 1170 1198 1255 1208 1247 1261 1356 1254 1336 1424 1361 1417 1416 1350 1391 1318 1327 1357 1342 1333 1355 1310 1234 1210 1156 1147 1075 1106 1014 987 966 954 882 
909 941 985 1024 995 1079 1072 1101 1187 1229 1261 1290 1247 1268 1343 1371 1317 1369 1399 1405 1362 1368 1382 1319 1314 1232 1343 1301 1309 1262 1238 1258 1195 1187 1080 1012 1001 1016 889 926 
908 924 978 977 1035 1043 1150 1168 1156 1212 1216 1240 1275 1282 1384 1408 1392 1338 1341 1430 1421 1373 1362 1347 1336 1345 1291 1317 1258 1271 1248 1219 1216 1127 1091 1049 1032 964 971 869 
895 958 951 992 1076 1039 1172 1184 1242 1187 1259 1272 1347 1274 1300 1376 1366 1335 1368 1365 1392 1362 1407 1349 1396 1337 1285 1332 1276 1245 1201 1215 1124 1139 1073 1101 983 940 992 895 
894 978 988 1028 1102 1103 1175 1090 1251 1299 1257 1259 1305 1264 1300 1339 1308 1351 1426 1366 1383 1373 1359 1334 1313 1334 1355 1335 1276 1263 1235 1198 1182 1158 1074 1067 1008 990 966 911 
917 905 930 1014 1050 1153 1109 1156 1192 1204 1214 1353 1348 1316 1306 1362 1387 1366 1426 1344 1377 1330 1419 1346 1357 1333 1347 1274 1278 1184 1200 1132 1181 1136 1108 1100 1022 975 946 912 
885 942 967 966 1074 1069 1124 1135 1192 1177 1209 1238 1342 1384 1369 1315 1368 1407 1437 1347 1405 1385 1415 1345 1378 1369 1323 1289 1228 1244 1227 1150 1161 1159 1114 1057 1034 958 931 895 
925 950 989 997 966 1089 1085 1169 1185 1185 1277 1286 1339 1354 1383 1340 1431 1406 1422 1386 1436 1424 1401 1353 1420 1413 1329 1338 1317 1276 1185 1186 1188 1184 1083 1049 1048 1022 953 961 
946 970 973 1051 1057 1121 1149 1151 1203 1272 1270 1305 1323 1268 1284 1355 1350 1375 1425 1451 1366 1422 1348 1397 1366 1336 1379 1319 1319 1341 1230 1115 1212 1162 1049 1032 1091 944 957 911 
920 913 956 1024 1017 1111 1186 1176 1138 1250 1283 1349 1351 1297 1382 1331 1389 1375 1396 1387 1346 1421 1393 1385 1357 1394 1261 1293 1319 1275 1182 1179 1130 1129 1082 1083 1027 945 986 891 
933 949 952 1069 1041 1072 1164 1197 1210 1246 1352 1282 1334 1309 1342 1355 1431 1448 1398 1431 1397 1419 1340 1349 1361 1314 1331 1311 1323 1300 1248 1260 1173 1085 1143 1090 1018 975 1028 897 
871 939 1077 1015 1072 1098 1154 1165 1226 1200 1248 1304 1258 1289 1361 1375 1410 1377 1423 1462 1371 1375 1395 1371 1372 1327 1323 1275 1263 1254 1266 1262 1217 1234 1036 1100 1031 977 985 879 
856 943 996 1045 1013 1054 1175 1206 1200 1200 1201 1341 1340 1343 1326 1367 1362 1415 1369 1411 1351 1415 1373 1390 1422 1347 1252 1301 1229 1162 1237 1204 1136 1145 1135 1098 1026 982 893 920 
923 968 1035 1055 1067 1110 1168 1144 1203 1255 1261 1368 1315 1350 1363 1417 1338 1434 1401 1347 1374 1371 1345 1379 1420 1317 1299 1289 1326 1275 1236 1222 1215 1116 1064 1111 1013 989 1032 905 
892 957 972 1048 1054 1052 1132 1211 1202 1211 1223 1305 1329 1310 1331 1296 1439 1347 1400 1369 1415 1411 1378 1332 1333 1379 1386 1309 1298 1288 1231 1205 1182 1096 1124 1025 1079 1030 901 899 
897 897 979 965 1037 1118 1126 1227 1107 1229 1188 1290 1325 1282 1318 1386 1401 1370 1365 1419 1399 1366 1394 1355 1382 1353 1321 1301 1342 1224 1226 1143 1227 1167 1052 1021 1018 1021 1004 880 
870 975 982 1034 1034 1104 1138 1141 1254 1265 1258 1334 1353 1330 1301 1341 1429 1426 1390 1412 1431 1330 1463 1368 1382 1368 1271 1243 1242 1301 1245 1152 1186 1152 1038 1059 1010 964 962 953 
892 1011 934 1018 1088 1078 1098 1150 1199 1199 1273 1288 1236 1365 1350 1387 1383 1354 1371 1423 1435 1391 1412 1425 1292 1351 1336 1283 1286 1236 1178 1203 1163 1140 1118 1056 1005 1004 911 907 
883 845 989 977 1099 1125 1100 1176 1314 1238 1293 1241 1320 1313 1345 1351 1315 1354 1391 1372 1444 1375 1309 1327 1413 1269 1379 1332 1300 1200 1233 1218 1135 1159 1051 1084 1008 951 943 872 
880 970 930 960 1077 1074 1155 1106 1165 1269 1227 1320 1266 1327 1333 1323 1343 1389 1377 1423 1443 1428 1317 1358 1341 1317 1246 1293 1283 1280 1167 1221 1178 1107 1105 984 1030 1008 972 864 
893 953 957 1037 1021 1132 1120 1175 1150 1258 1267 1272 1238 1337 1363 1377 1376 1338 1315 1321 1439 1407 1424 1380 1364 1342 1324 1305 1249 1298 1211 1215 1145 1126 1029 1110 1009 1037 965 886 
916 940 997 1002 1037 1090 1121 1182 1216 1194 1298 1186 1235 1253 1317 1267 1369 1334 1394 1405 1356 1447 1275 1327 1341 1352 1355 1225 1239 1249 1251 1210 1151 1086 1080 1088 1046 968 979 901 
893 922 947 998 1081 1048 1145 1191 1174 1214 1267 1284 1272 1261 1289 1378 1328 1402 1360 1384 1397 1388 1357 1407 1307 1307 1336 1328 1289 1207 1213 1125 1165 1106 1062 1016 1012 930 966 934 
936 894 973 972 1056 1082 1064 1143 1161 1118 1216 1220 1280 1314 1323 1358 1320 1264 1406 1357 1360 1363 1393 1322 1304 1288 1310 1262 1244 1287 1249 1125 1154 1049 1057 1048 988 923 953 893 
932 966 922 965 995 1059 1172 1089 1203 1196 1221 1258 1226 1281 1303 1268 1356 1406 1322 1382 1309 1349 1392 1346 1314 1362 1255 1312 1260 1256 1207 1200 1201 1117 1085 1000 958 985 888 907 
831 940 909 932 1008 1027 1116 1175 1206 1259 1210 1192 1294 1272 1369 1270 1337 1367 1343 1329 1258 1359 1326 1322 1269 1291 1212 1243 1219 1248 1181 1185 1169 1044 1090 1020 1019 968 863 834 
861 897 923 990 1014 1092 1078 1194 1132 1184 1243 1215 1268 1324 1288 1263 1330 1368 1401 1287 1290 1323 1380 1416 1296 1259 1282 1289 1263 1240 1227 1101 1144 1078 1052 970 976 951 852 838 
848 925 937 998 1031 1058 1072 1047 1115 1123 1170 1196 1255 1298 1244 1312 1336 1311 1298 1329 1356 1305 1296 1241 1236 1260 1281 1236 1223 1173 1101 1162 1052 1059 994 1017 972 955 882 883 
850 855 985 962 1005 1044 1055 1090 1110 1118 1139 1183 1238 1246 1250 1223 1216 1340 1311 1266 1303 1372 1341 1324 1234 1307 1231 1291 1232 1170 1212 1117 1115 1049 1046 999 994 929 936 806 
814 894 941 914 1042 1011 1088 1119 1118 1108 1169 1135 1199 1212 1261 1256 1236 1303 1296 1293 1324 1369 1274 1218 1222 1254 1224 1232 1221 1225 1138 1139 1109 1006 1017 935 957 876 849 855 
786 827 900 920 898 999 975 1106 1087 1179 1150 1163 1169 1227 1241 1270 1240 1277 1261 1281 1207 1275 1253 1219 1318 1252 1211 1149 1139 1142 1123 1080 1034 987 1018 942 936 928 919 877 
798 802 886 931 951 1001 958 1006 1049 1149 1118 1137 1160 1153 1179 1207 1234 1256 1255 1164 1291 1295 1189 1211 1300 1211 1158 1186 1122 1098 1093 1071 1047 1013 938 984 861 862 834 815 
