# Format: McCode with text headers
# URL: http://www.mccode.org
# Creator: McStas 2.6rc1 - Oct. 12, 2019
# Instrument: Test_Sources.instr
# Ncount: 1000000
# Trace: no
# Gravitation: no
# Seed: 1570893944
# Directory: Test_Sources/5
# Param: source=6
# Param: Lmin=1
# Param: Lmax=11
# Date: Sat Oct 12 09:53:38 2019 (1570866818)
# type: array_2d(40, 40)
# Source: Test_Sources (Test_Sources.instr)
# component: m2
# position: 0 0 1
# title:  Intensity Position Position Monitor (Square) per bin
# Ncount: 1000000
# filename: m2_1570866817.x_y
# statistics: X0=-6.84906e-05; dX=0.0288432; Y0=-1.78609e-05; dY=0.0288257;
# signal: Min=1.24604e+08; Max=1.79059e+08; Mean=1.51205e+08;
# values: 2.41928e+11 3.39935e+08 999983
# xvar: x
# yvar: y
# xlabel: x [m]
# ylabel: y [m]
# zvar: I
# zlabel: Signal per bin
# xylimits: -0.0499997 0.0499995 -0.0499992 0.05
# variables: I I_err N
# Data [m2/m2_1570866817.x_y] I:
144732249.5 141746793.3 154274119.4 150833878.6 160303459.1 156367841.1 146528731.3 145913270.2 146200975.7 136673374.5 148622106.3 138391931.3 143834589.1 143334197.8 172005320.5 145821353.2 144573370.8 159752766.5 160004744 160388089.3 146810664.1 155424815.5 145957002 158184952.5 152882036 134719648.9 154353467.7 141304556.1 154733187.1 151382183.2 148996663.1 144693954.5 148820735.5 140514112.3 140571546.7 147780232.3 155075933.8 140333013 149855269.7 166708781 
156505277.8 133719709.9 139254512.1 150888814.6 143253901.6 141470840.7 142925078.7 154149368.3 150461009.1 152539379.9 152085889.3 156645502.5 144430698.3 153746767.5 149421630.3 154675659.1 148967806.8 148410447.3 132946016.4 159928101 154795741.1 157885263.8 142525614.2 147826254.1 144014515.8 133909967.9 152738441.7 137923375.7 151499949.1 152500218 155356611.2 148120374.6 156606424.8 159353589.6 142884183.2 161104321.1 169644956.3 145644414.1 165093996.3 153277852.5 
155359544.5 146122621.5 161372868.2 148092907.2 154846039.9 143477024.8 167207421.4 156128445.8 163699900.2 153287217.2 137284657 160638553.6 152046637.9 142983895.6 143690447.9 150158404.2 131359110.8 138334261.9 141264206.1 154196856.9 146720213.4 152446258.7 152035267.4 135386547.6 153533585.4 147614117.2 143400870.4 144228025.9 151654844.5 149163051 148979176.6 160026968.1 159314212.2 170947942.1 140553201.2 140046911.4 156641330.7 150855393.4 156776759.7 140375056.5 
160486252.6 157453232.3 140691086.9 151437693.5 153377392.1 144524630.7 149732287.7 146082411.6 152120214.2 146951136.3 156912409.1 159546887.1 160583054.3 157459162 157231855 164702709.4 150029171.9 149716535.1 170628435.5 149730616.8 160755034 140946315.3 157257976.6 153701690.8 162024717.7 150581881.7 157362710.9 147694848.9 151410030.1 148138653.9 145736836.1 146027957.1 155102190.5 149968526.2 155664174.4 150400077.5 142332156.8 155095118.1 134757855.7 158138742.3 
159609890 153234666.5 148176372.2 152452843.7 153894469.9 135903991.4 139894171.8 154840661.8 150364779.8 153707061.4 159446438.1 157700076.3 154562373 148064010.7 145900599.6 151295585.3 153050343.4 152969108.3 141322219.1 157772707.7 144965738 136656159.1 148099278.5 153756782.2 146977968.2 144084452.7 152746810 148759768.9 149684871.6 157853895.6 146274463.7 160820826.6 155991774 131406617 152782649.6 144492433.3 150117874.8 149071403.4 150016780.1 145328239.3 
161607699.3 152353796 142908985.3 139857782.4 150437529.2 157407367.1 146758966.4 161313290.4 140428981 144445005.1 153971976.7 160605904.8 152211409.2 152580755 160745702 159073332.9 143157206.2 168661183 141842040.9 146053780.4 147204614 154564515.6 157388210.3 150355504.4 154097965.7 160182432.8 154820881.6 150293553.4 139964910.2 154602706 156572464 147488367.3 157906611.7 147775623.3 151894980.7 160546048.4 153917884 140489905.5 146708973.4 167443282.2 
163618688 151712017.1 144072933.3 136557768.1 156678956.4 143032713.2 131532057.2 153896499.6 146596148.7 164178001.2 154053701.2 154047659.8 161819162.6 134786627.4 165609984.7 153472004.9 158752741.8 155789675.9 139440687.1 145523420.5 158574798.2 139673531.8 148249433.8 151644320 147935753 158431930 162747731.3 137918963.6 153478204.9 133653366.8 154517525.6 160846159.8 160762632.7 157081151.4 141372247.6 138981262.7 164336181.7 145350520.3 141768920.8 154432235.3 
144837303.1 136136270.3 168515136.5 152845122.5 143690690 160849916.3 154569376.9 143676284.7 156246498.2 151598582.3 160297074.7 151646966.4 153145472 159341127.1 144298404.8 154868977.4 157697001.9 138678420.8 150729046.3 157360206 149865910.2 137309966.6 153744290.8 174930089 128192940 153575151.2 148648360.9 148798081.3 149627555.2 154918268.4 136276449.3 150039331.6 135560141.4 151039701.5 148640655.5 139391430.8 142774340.3 152550926.9 156177661.8 143089835.5 
158756453.5 147425601.5 129347660 154316420.5 147030928 162675319.8 148240683.4 134016244.8 137104037.7 153171817 148074631.5 167814183 148105504.2 161832486.4 151238548.4 161754887 150511536.6 151415729.5 153461515.1 139990670.9 165208286.9 146166884 133280634.6 153816825.7 151134885.7 151441507.1 156593019.3 141228125.2 126624888.3 151256667.8 149858269.3 165191320.3 147530897.1 141454595.1 150507625.7 163669672.9 143092896.9 146028205.2 163253349.7 158521936.6 
167069647.1 147117173.3 147732616.3 145424797.2 124603765.3 148989764.6 156999676 160922907.9 163715724.8 142821223.1 150903928.9 150018854.1 157764449.6 150177219 158746921.9 148274856.8 178962642.4 150579990.9 169761804.4 153500824 150764559.3 148911214.3 154083815.1 143636873.8 143122018.9 141219939.6 159436218.8 151162345.3 136633614.6 141381029.7 162775656.8 157287171.7 151971432.5 151098113.4 152983304.3 151065716.6 152116709 151763252.4 153391456.8 148411001.7 
157670795.5 151854131.4 154936416 156533382.9 165371641.2 144131908.8 166082247.1 161222095.8 154992122.8 143636333.1 157008232.4 159290478.4 145058232.8 154813803.2 158246591.2 148221100.4 151867334.6 147932296.8 163484785.8 162557466.3 160455597.9 146268352.4 167530034.6 153453456.4 143305426.6 164005404.9 139641352.8 160824822.5 152228621.4 166582042.8 147822630.2 155969305 167127248.6 153652937.1 154097654.5 149031437.5 147016757.3 151057756.5 152940031.2 151158289.6 
146984929.6 153807745.6 161731927.1 150608199.5 143908543.7 142340792.4 157993390.9 166952292.2 142297095.8 144188225.8 157338560 148559544.6 153722440.4 143888310 155381169.9 165525386.2 158877032.5 151137951.5 149546378.1 157358014.2 147022515.3 140486521.1 147338908 161966946.8 149199188.6 162416957.6 145335472.6 163266208.1 141354376.4 139260073.1 147669355.5 140977055.8 140529431.3 154436099.1 161335679.4 171832320.2 144951859.2 159306065.2 143054786.6 149354744.3 
146561164.5 166764125.2 151514773.9 139089176.2 160532551.8 157373889 156634036.5 164165491 148000214 153180632.8 160950316.5 155299518.8 168573691.8 167853536.2 153017897 151995699.7 151997077.8 137521546.2 159365325.1 156607058.4 160718750.9 141682724.6 158435944.8 159758738.8 156731897.5 154782511.3 153282344 158643708.6 137820280.6 162884878.1 143289764.6 139661560.1 145811192.2 142387184.1 143505355.4 146985512.8 133872510.4 151449196.5 158384705.6 143480611 
133810013.8 149968437.7 161049050.1 149704828.8 159279440.3 164927404.1 149074833.8 151796367.9 150600477.9 166337787.4 152630482.6 148709114.7 155721220.1 156469087.3 149561184.9 167998840.8 143770105.8 148237928.1 149853718.4 151233880.3 141077673.9 160329676 156826411 165300743.4 157276396.5 150045594.8 154316073.9 149651330.9 138105214.5 163936459 163850017.4 152070329.9 146461168.8 159335415.5 143788591.1 149875475.7 140256161.9 145320167.8 148240626.9 162548506.7 
144236123.5 139701765.2 144712184.9 157046666.8 150112132.5 147758592.9 140309780.1 148656544.6 160429617.3 153623575.8 148119926.7 137257646 142022853.7 151323405.2 157942513 151375444.9 137483942 138966740.1 154102043.2 153884962.2 157836849.3 138324584.3 167293446.3 148040631.1 163393974.3 156562351.6 139811651.5 154278082.1 162240313.8 155212770.6 159754910 139986966.6 166814825.6 144208180.6 158316933.4 134660282.3 140112808.7 151880767.7 154327294.6 152494845.9 
152712224.8 157576696.3 153231665.4 161100475.5 153479202.4 148603378.3 153915118.1 149999157.7 156726308.9 148406604.4 143284781 127933602.9 161751189.9 146033902.8 149214259.5 139699027.8 140410928.7 159118748.7 160460503.1 168400781.2 162023140.7 160739351.3 166065247.7 154631751 159149886.8 140935373.5 157947301.2 163624220.4 151686577.1 151984176.7 146807037.1 161244726.6 154402542.3 139688402.3 160195680.9 153557942 156675037.4 157963234.5 157405357 152497964.4 
148111006.5 162267081.6 138991293.5 158320419.7 145326737.3 146076598.9 147933262.1 161725814.9 147086580.8 160027067.4 150470978.1 150174958.4 155960662.1 159706944.8 152250118.7 147012750.3 153955871.1 156089097.9 179059084.2 148267659.6 158355318.8 156177737.8 151484248 143661039.3 141196418.3 161436852.9 150533402.3 158069787.5 148169089.7 149906557.4 155053886.9 144848551.7 156838502 171607349.3 162519341.7 149045617.4 156374272.7 170660842.8 149609067.1 154557014.1 
157705138.8 154563198.8 145897132.7 159957872.8 153202445.8 149817741 149623345.3 155460490.5 165934953 141774137.8 146257784.1 159034635.4 150573747.9 149684330.7 156483572.8 158111500.2 159217285.7 141482867.1 165311909.2 147558574.9 153325169.3 152304177.7 153701102.1 154312845.4 161559401.9 142017304.9 148710905.6 138918590.5 146349018 166447832 151941339.4 151138230.1 146996283.2 152386684.1 157456435.5 155761837.6 146398403.4 145429552.4 159901505.3 154297566.2 
152615681.3 156069724.7 166964419.9 133594642.6 142048852 159992746 158413560 157297623.1 141115191.6 151528127.3 147006250.4 151809346.2 159098265 140764978.2 155051716.9 150233835.1 151249390.6 137104647.3 164341987 146287131.7 155597321.1 153330812.1 136842222 155478821.1 146791677.4 148765071.8 154245742.5 152141325 142150688.8 149725132.4 143603742 140803516.9 129106167.9 158949055.5 145454459.9 133584828 140215381.8 154333887.8 136846237 139973514 
158711456.8 150134976.6 168532406.7 157547747.4 151949284.1 144047927.4 147058990.3 152558035.9 134459071.3 173730379.1 154417210.5 164774665.2 149681207.9 155701001.2 160579142.2 161176361.8 165774029.7 135760407.9 157027675 149550545.9 148142359.1 155492758 144456356.2 146503332.8 146504360.2 142009157 151944385.5 135381674.4 148053215.3 139066296.5 136654374.8 154497135 161563550.2 150049317.1 152580839.4 150677774.5 148442848.4 157175616.4 148632779.7 158807733.7 
155444856.6 148574480.7 145975318.3 151488853.2 146003259.3 150678033 149252857.8 154682205.5 173523365.2 162605475.4 139949443.4 160588254.1 167794201 136233210 145449101.3 142762931.3 155833504.5 145511988.1 146658259.7 157551796.4 140642121.9 156088470.4 154312361.8 155426289.3 158209823.5 154856343.4 150474781.7 138799634.1 151675138.5 145613092.2 151439894.6 147565798.4 151807129.5 155245473 149430105.5 159446889.9 155268613.8 152697446.6 153494483.1 165347494.7 
148900242.7 134079134.8 148820443.2 154849668.5 149385888 156517921.7 151382160.3 150637223.5 176942750.2 170586472.7 142122333.4 138702988.5 156542606.9 160735803.6 134905101.4 146309775.4 152400716.4 154622320.2 152713630 154747116.6 146354345.9 148364869.8 154080238 148460584 147115974.9 144652348 158517857.8 165542898.3 153000867.6 146568384.6 153838846 157204990.9 150409385.7 148467005.6 149254710.9 139485889.9 166819240 166705652 150204961.2 147423266.3 
160011296.4 154062139.4 143811475.5 148743076.1 140371007.3 148255522.6 169905225.6 134792581.1 146715134.8 154728472.7 145613247.1 157897464.7 142397031.8 138349268.3 146832824.1 145809424.1 154813223.8 163835320 141813507 162368348.4 154046773.4 150576796.9 158567792.4 140209109.2 148304597.9 153871111.9 147086098.8 156861485.3 155543973.3 131026747.5 152712714.9 146038036.6 149353357.2 156543339.6 138227455.8 139931267.8 167683132.8 148944711 147373002.7 146920891.7 
146698644.8 145307655.2 162118749.6 141615442.2 155153351.4 159228993.5 144535039.7 149689913.9 150628869.9 163231959 149730682.2 152027121.4 138337529.5 150027335.7 148017724.1 156517482.8 151529698.9 156708306.7 151379245.1 145847098.6 156445290.6 144575746.6 141886149.8 134439403.5 145626789.1 146516299 141870649.9 161427795.7 153008969.8 155169604.6 144582306.1 148055927.6 145874640.1 150157416.3 161703578.7 161013632.4 139200964.4 149364551.9 148241823.3 142457391.4 
148011419.1 143935713.7 148139804.4 149916309.1 162454533.4 156512197.2 157358325.3 147783534.1 152860658.4 147693265.6 147637600 155695580.7 155345362.6 150027397.2 148212782 155425458.3 159990011.7 142529257.6 137095768.7 163040319.4 134238410.2 144935773.8 159352544 143208719.8 149442437.1 161156247 152862004.4 152885330.6 146896635.6 148455448.4 141968660.2 154979296.7 148321060.4 157746312.8 149494824.6 156435205.1 155277154.8 153216377.4 138835907 153664999 
146232674.8 155041769.7 142326204.7 151079886.8 162858887.1 161576199.4 137514502.8 149816106.8 149197349.2 162670158.4 149497035.6 134769831 149187467.8 143463586.3 161596848.6 136970999 142348153.5 151945478.2 150200937.3 156466588.3 154123862 143762393.8 136442967.9 153634945.3 156640230 146542962.6 141037714.4 148148127.4 156009603.7 155031532.3 155659793.1 150532923.3 155379495 159053768.6 159559825.9 152740487.8 158661194.4 164745530.7 146790237.8 161536237.1 
154618938.1 156783046 139203353 142611936.6 144479403.9 148785907.7 146231528.8 146758713.9 142681760.8 160915177.2 161327129.5 141599980.8 147597581.2 148036704.5 155170531.7 139218849.4 161211177.3 153210855.6 151083793.7 146093320.7 146631351.5 142611521.9 164104174.4 156457165.5 149904840.9 141948611.6 150906988 156735766.4 163771949.4 150761971.9 149856575 139842993.3 164832049.7 172231222.1 158536093.9 158673790.6 135929770.9 154799802 154771423.2 137314697.5 
161301460.4 148003325.2 136358412.1 151639070.9 149285623.7 160115406.4 158186907 152169145.3 145343351.4 157927652.2 132575191 146017924.7 155724667.5 147717468.9 155580901.2 160157034.6 154963523.6 138707709.8 147596701.5 169119963.9 149349297.2 155646881.1 151225127.9 147230570.5 154029438.7 153711031.1 140307411.4 155759531 136419718.5 144493089.2 150540423 169635245.7 149393867.2 158557605.5 163967297.1 154580409.2 152708130.8 140460124.5 144871423 152758688.5 
153582923 141211640.2 148164784.7 146483459.5 157816990.4 160722802.3 147712684.9 156023232.7 145782693.1 148731581.2 151862716.3 149514845.9 143871126.2 163051431.5 147886752.8 146759723.1 136662407.9 161790607.6 144702783.1 158067921.3 152565254.9 152520534.3 137164923.5 147475710.8 143469599.9 142183536 151723937 155578927.7 149904178.6 150884932.4 161514452.3 149933393.3 143911632 169789439.8 145516651.6 146320029.7 151636089.8 148484354.5 156594942.9 143441177.4 
149856454.7 145708435.5 151569430.4 173055249 146192752.2 151141531.5 169020987.9 150362072.6 142996469.5 157369888.1 153624454 145287233.3 164716655.4 142797917.4 157128758.4 146054732.4 158076584.6 154659706.8 150300649.9 144955644 152559821 146626188.1 150239552.2 151178173.1 165261615.8 148802277.2 160733300.9 153871141.1 144538197.6 154953384.3 140331617.6 148845151.8 149432019.8 143714400.7 157474464.3 146522953 151520517.9 144274049.1 147655760.9 153192725.9 
146296944.3 143549494 155146525.2 153042003.7 151690465.8 150143733.4 143256749 137641443.2 164915851.4 172831896.7 150599230.5 144034085 150906910.8 155870487.6 150364779.4 149369308.9 162021122.7 168441389.5 160536726.1 147790006.9 146700927.5 139256995.1 147872273.7 145388603.2 146368018.4 159257540.2 154452391.9 147419495.6 140487942.4 131944418 152324883.2 147168766.7 155238376.6 148275025.5 150478789.6 135926091.2 157448279.4 141638755 153175472.9 145593806.4 
153149265.5 153717116.5 163487492.8 160037072.1 149158491.5 160975058.9 142291298.8 141611296.3 153667543.5 142087932 155996854.2 159465595 148382533.4 158346279.4 154628873.4 145126076.3 142474838.6 160595917.5 163966567.6 158303900.4 139475196.2 149182257.4 159814646.8 149390016.3 147028162.3 161783521.5 157516730.9 146084725.9 137621820.6 156023335.1 134185086.2 147576587.2 159363690.5 157624417.7 146395610.6 138516379.5 146761730.4 147188253.8 145294430.5 152146293.2 
151862350.2 146294875.6 160744795.8 141541175.5 134414773.5 150792983.2 147672806.9 144181646.9 133740563.7 156810327.1 148262116.5 141877975.7 149085944.8 155638739 154521244.6 152689209.7 146333160.3 149193364.9 142931403.7 152162063.3 148174666.8 160478681.4 173744427.2 141189144.5 142185768.4 149602679.8 152267784.9 153919796 152087724.2 154291863.8 146395311.5 147002495 145739051.9 161135608 163772028.5 164681943.6 145188787.2 155842069.8 139681690.4 149534243.5 
147866718.8 156608729.5 157919962.6 151420121.6 156198302.3 146678696.9 164536104.7 155086369.7 145559419.8 144071615.6 162994930.1 159066025 159455446.2 145642544 149015328 147731051 155849149.3 153364329.4 165614515 165250876.4 161262058.9 144171821.9 161325593.1 145458760.9 149509139.2 156808049.4 146424693.3 152061931.9 146948128 147681446.8 143828558.7 153772568.3 142952768.4 143118264.2 160783901.9 155869025.5 157775660.1 163906394.9 142617010.5 164748454.1 
163602238.6 165854198.6 142570414.9 149877435.4 160170562.1 148031755.9 149302010.1 143344945.8 151291021.2 149469489.9 153477300.3 140774230.5 160159493.1 158179362.7 140292893.1 153991405.8 156395877 166728090.1 155830779 153605387.9 138497657.4 151158382.7 167274813.1 134674254.1 151086885.3 136488499.7 157979617.6 156064527.9 155267558.4 141475163.2 158758808.4 153349790.4 151962978.6 156303170.9 158572326.3 145062012 144731672.8 145249439.5 159346889.5 143488101.3 
140161567 151000005.9 149869435.2 156017152.1 138161632.7 150014264.8 157941018 153871087.9 145907424.6 150913068.4 147160112.6 156425076.5 150656599.4 134818585.9 143606930.4 150164416.4 148275787.2 137775152.7 165162051 161026294.6 154426433.9 156663004.3 144354310.3 141327376.1 154990386.8 150880348.4 164705756.2 166381141 157004499.1 146397628.3 150382335.8 138177693.2 152590739.8 150824292.5 153243392.2 158106946.1 145314617.6 161866236.2 142036926.1 139077875.7 
150340227.5 141799922.9 156289530.1 156921691.7 147605289.6 143160238.3 150510644.9 161938940.7 170184696.8 140703336.5 141707041.8 158050480.7 158797701.8 158756352.4 144374929.4 157940696.4 142317644.1 151713524.7 166114850.1 145033851.1 152059053.5 154817518.9 159841350.5 166393165.1 157431256.9 142525048.4 142469912.8 144231612.5 148462158.6 164630468.5 143404684.1 134848879.7 150733031.9 145727166.3 151610112.4 133704447.6 150824414.9 137287268 151895002.4 137923213.1 
149837198.6 156639421.4 160620056 165499956.8 163159686.1 146023886.6 157722100.7 149484213.9 152225075.9 150498556.4 141403835.3 147498841.1 150732376.6 152178866.5 146657118.8 136158105.4 147598532.2 152713117.9 165625171 145387826.3 152841273.7 152288506.6 132434783.3 146339808.6 156133621.6 143717663.1 163858402.7 142692211.6 155090815.2 143298127.4 148423711.4 148621675.7 143310044.2 151285317.3 148812096.5 158495487.9 152198893.5 150096660.7 149173799.9 157512960.2 
140603187.6 150185687.9 137883538.5 151357282.5 150944042.2 162857543.1 157720829.5 144630665.5 146014734.4 151133250.1 147811823.6 156824884.5 149621728.7 160730226.9 155754503.7 164704488.3 158678943.1 147591374.6 168244118.3 153784238.8 145191658.2 151454010.8 155293564.9 134825511.3 140584381.9 140608312.2 153160742.8 141667163 134734319 156501013.2 148610945.3 151751054.4 152778544 140434732 161403939.6 136641509.8 148246972.7 144573015.5 139635347.5 145709254.9 
166348258.4 148694317.1 164463875.9 166166058.4 144954354.3 154768849.1 151732639.5 135694130.6 146162509.2 138400369.8 152974703.2 151937649.3 162169191.3 161981506.9 151183879.5 158087528.1 140419264.8 150771265.8 151606622 163907147.3 157076511.7 151708324.8 157028958 149373406.3 150924313.1 146771948.2 157843168.8 142782851.3 145072603.7 154455200.2 140239200.6 140972292.5 138174632.7 144672232.8 152106997.7 148797921.9 158772566.3 162965820.8 150702166.2 144724941.4 
# Errors [m2/m2_1570866817.x_y] I_err:
8240152.913 7952745.086 8677249.017 8173547.847 8986954.574 8765080.643 8115687.871 8415918.215 8095532.986 7846204.404 8430708.228 8042862.879 8170453.425 7984622.244 9401123.669 8374005.817 8036980.179 8829301.404 8778213.807 8936115.814 8454879.784 8816377.256 8206524.049 9094609.875 8399781.416 7783911.92 8629777.957 8193585.655 8677250.024 8593159.334 8283531.891 8424027.06 8171167.956 7925782.611 8267629.418 8328290.12 8694285.301 8020410.042 8673199.904 8965235.344 
8751118.543 7503013.384 8004015.338 8437434.523 8243682.88 8015970.371 8332663.833 8522552.903 8373056.082 8640926.18 8582644.13 8538354.702 8331453.479 8328292.52 8363281.798 8395428.928 8247260.961 8452203.407 7768298.51 8791064.409 8780895.187 8983480.793 8154705.957 8395325.854 8293427.873 7937058.81 8845385.171 7914560.6 8499344.809 8668169.858 8650554.534 8386637.609 8604045.333 8874906.029 8160495.79 8746651.86 9023301.456 7981422.098 8875213.68 8480174.833 
8718858.285 8462145.348 8605004.829 8286484.416 8593599.93 8106556.072 8948170.982 8749472.177 8992089.669 8448245.335 7969570.203 8847002.197 8589312.239 8312288.959 8121110.591 8463129.846 7408424.431 8124270.146 8311486.982 8514034.682 8277827.252 8522483.028 8329993.439 7899381.881 8376435.667 8547697.541 8207283.435 8332578.629 8434433.316 8325538.161 8400259.76 8804127.378 8881604.977 9233229.172 8219713.699 8088887.142 8624118.542 8502125.445 8445296.579 8021323.023 
8917130.587 8786876.174 7903075.51 8726494.377 8354433.074 8163789.335 8581663.026 8311297.575 8442072.17 8415101.925 8846021.961 8872095.728 9027731.105 8809334.578 8617065.753 9061291.018 8452623.148 8683650.109 9044202.181 8322475.756 8857041.992 8172617.176 8772040.225 8652376.492 8870280.962 8544084.71 8775638.001 8300359.826 8413729.153 8377414.822 8260628.527 8213561.18 8597813.516 8306268.722 8790791.67 8358817.885 8174507.022 8394806.228 7962217.462 8888971.8 
8587701.413 8464234.739 8195351.014 8189838.922 8548624.29 7910868.311 7919065.09 8749993.872 8418477.761 8504911.691 8707730.398 8848672.947 8555637.292 8266445.842 8107114.461 8574542.831 8630091.69 8468057.626 8190920.253 8595157.51 8133776.467 8064737.61 8458988.839 8394715.507 8329022.511 8364125.854 8383399.34 8394182.703 8351784.683 8700903.073 8407352.489 8903713.307 8622547.97 7544383.688 8572944.264 8181863.463 8277802.91 8317422.805 8343807.154 8309156.822 
8569962.767 8576968.657 7921238.972 7855708.191 8562868.024 8772894.394 8165978.698 8821517.559 8098280.18 8295038.301 8805550.487 8699234.851 8578410.346 8449427.774 8863442.628 8784393.743 8111711.885 9236159.327 8146796.475 8395272.891 8004614.559 8710477.189 8683145.515 8288806.119 8578550.191 8828810.804 8580846.602 8368951.437 8100316.588 8585547.501 8683585.343 8400623.085 8926775.499 8423765.932 8382725.625 8672118.182 8428077.007 8259253.756 8357077.478 9276232.65 
8843723 8386682.93 7971283.464 7560538.236 8890982.636 8352228.633 7746314.232 8778094.005 8392161.892 8839522.926 8518495.06 8593740.772 8892217.234 7897234.189 9079890.741 8604689.38 8661578.146 8615646.242 7960102.661 8184555.753 8518236.655 8133697.479 8388299.513 8493775.392 8318992.542 8951390.836 8980573.518 7903501.075 8595481.516 7727995.642 8989645.147 8937146.796 8745605.327 8857417.079 7935808.293 8118305.234 8900729.279 8062120.876 7967992.764 8760266.269 
8201857.14 8038312.52 9056685.866 8470748.138 8284639.252 8650042.945 8591775.159 8329513.047 8705127.582 8219515.217 8755589.73 8598429.645 8504748.597 8886210.491 8247914.634 8604136.09 8837768.027 7832390.208 8464707.963 8651092.13 8559818.809 7893844.112 8670566.997 9409102.494 7636171.727 8531119.062 8343641.243 8399276.668 8318278.102 8534429.889 7766118.782 8512193.313 7938028.927 8506999.577 8536691.821 8069493.982 8147477.903 8720407.961 8705479.262 8356549.433 
9039149.716 8391909.417 7611061.229 8543243.136 8518522.438 8995401.388 8407737.731 8121744.029 8034644.788 8268591.088 8253862.84 8956879.756 8444319.198 8814410.031 8413210.454 8702530.531 8285678.439 8627770.471 8569843.663 8093535.039 8888313.63 8279429.411 7885323.362 8837925.524 8424882.37 8495933.454 8724964.19 8161904.279 7742348.59 8356275.122 8196063.061 9279089.424 8400641.157 8136845.498 8742410.292 9297571.732 8021511.939 8214643.72 8804714.135 8732607.959 
9074792.728 8322242.673 8620005.537 8175265.978 7486329.56 8381063.515 8774272.604 9040894.656 8933763.923 8354982.022 8625660.96 8526995.069 8653627.008 8379281.681 8813760.426 8325838.369 9419695.55 8507817.383 9142697.025 8437585.963 8429420.649 8404951.815 8609556.958 8283251.044 8081322.903 7962446.232 8761827.212 8687399.118 8077808.57 8000021.257 8769766.978 8663440.217 8514753.773 8514942.153 8591077.014 8309970.542 8552523.399 8561665.381 8406484.063 8440077.39 
8930823.263 8391143.428 8768557.846 8589568.296 9120586.896 8144160.908 9201025.96 8854161.445 8847825.542 8075393.557 8698128.168 8817199.119 8237986.148 8601363.392 8669979.505 8555996.744 8504886.445 8312973.128 8914780.442 8989892.763 8653746.126 8555792.972 9187133.16 8754182.876 8196494.706 9089773.852 8049562.302 8725295.757 8625751.221 9138987.295 8104981.96 8608402.877 9020348.796 8378647.896 8667284.25 8138735.668 8323308.338 8799771.227 8658120.612 8404328.335 
8394655.988 8555821.139 8727602.941 8468988.418 8291322.103 8220732.664 8806736.212 8911248.903 8295343.73 8196027.064 8727249.584 8514917.264 8622436.806 8075700.433 8507675.589 9026096.022 8889863.855 8474716.494 8496264.52 8588560.038 8529961.958 8281075.028 8348504.968 8676632.284 8507174.563 9059544.088 8216546.466 9018199.159 8146483.927 8395057.654 8476245.335 7827729.767 8099321.09 8820586.781 8921856.637 9238233.925 8053384.149 8806340.787 8258351.89 8386842.707 
8397898.648 9096327.719 8494128.873 7997643.335 9126825.865 8700710.743 8941578.209 9064632.949 8190546.996 8716672.657 8809872.143 8528217.642 8996687.054 9248592.154 8448985.437 8456316.254 8467643.236 8062421.504 8792140.522 8760063.465 8690175.691 8310260.409 8852008.67 8677553.131 8569295.873 8504942.934 8654986.008 8767890.209 7962386.077 9147887.848 8247942.236 7964916.355 8238400.786 8124155.005 8133263.906 8182342.913 7967760.952 8455829.878 8701014.524 8164278.3 
7932235.184 8346418.791 8691621.292 8387966.298 8887883.632 8826978.286 8672670.102 8746238.415 8397332.668 8880687.885 8568212.355 8499119.159 8674402.09 8813875.967 8487090.76 9319496.969 8266314.893 8386125.254 8623567.159 8517644.185 8067123.069 9116729.772 8851962.465 8781237.946 8521644.096 8616666.189 8519117.575 8532935.464 8045883.814 8956080.188 9125659.344 8861115.863 8254093.585 8366307.292 8337140.333 8322851.368 8365708.518 8346697.31 8325517.176 9101143.625 
8120638.012 7822389.574 8218437.052 8797890.83 8440214.612 8280515.756 8176505.397 8418073.986 8862672.576 8449413.013 8241171.92 7900703.861 8073106.571 8618075.01 8662731.829 8442558.153 7735925.363 8022007.442 8501896.613 8683389.935 8847992.954 8391342.35 9299409.842 8616612.109 8664270.912 8637118.943 8014825.36 8577460.742 8871620.174 8402896.928 8815576.377 8137847.794 9195762.444 8412508.664 8563516.95 8037692.221 8134058.517 8402548.357 8645888.616 8721190.665 
8481251.263 8588200.662 8628756.654 8790014.176 8565619.931 8292423.61 8764759.414 8527834.17 8630429.125 8245776.105 8192923.689 7553394.663 8876628.066 8382853.773 8406572.59 8121297.854 8472080.64 8939041.763 8883101.697 8992215.343 8951449.199 8848035.243 9164734.468 8796835.187 8731585.048 8376313.969 8841912.142 8718879.353 8528759.328 8618435.324 8336545.315 8652328.452 8511306.666 7861268.796 8711656.139 8625225.264 8627738.94 8792226.488 8529032.717 8504283.04 
8318728.578 9007785.964 7951756.093 8725454.761 8314656.748 8219957.511 8435961.252 8948077.108 8587352.75 8802193.579 8516071.679 8289999.088 8595292.86 8656973.113 8492583.407 8349032.467 8573221.836 8731262.775 9263886.062 8681610.12 8709948.405 8681693.768 8327112.087 8164902.066 7940331.517 8789198.977 8625967.483 8690008.027 8528157.758 8484007.514 8617413.274 8235584.329 8835436.949 9258462.748 8840475.983 8362338.189 8745237.258 9396575.519 8397733.707 8577940.943 
8667596.434 8884789.889 8045993.383 8784300.873 8698002.587 8736575.131 8502747.912 8602689.447 8941625.782 8203289.915 8327218.092 8515860.854 8580410.815 8394967.495 8765333.861 8823582.096 8910228.78 8103808.556 8852518.205 8124260.455 8786899.649 8413598.297 8658649.287 8655325.23 8776996.318 8108757.443 8354861.193 8190534.794 8288992.502 9242647.195 8309399.956 8402410.071 8429557.311 8500167.952 8604002.22 8808230.078 8115718.852 8244753.829 9033656.383 8535468.202 
8328103.143 8617313.883 8913265.266 7640992.718 8151985.945 8890863.434 8720007.082 8806702.255 8066457.242 8391743.555 8488405.46 8692849.313 8829415.998 7955610.106 8446473.904 8381549.364 8332405.611 8105851.346 8942320.683 8368820.887 8683123.181 8566566.573 7722903.294 8785799.206 8581432.671 8256287.425 8703304.804 8547342.772 8161565.666 8450081.884 8106686.671 8134905.615 7614852.546 8863064.852 8180386.003 7720756.26 8151034.149 8661517.18 8063562.878 8311805.325 
8755963.903 8801039.61 9055959.302 8863401.492 8576936.173 8165870.96 8369261.619 8542335.208 7893555.028 9393070.563 8413715.792 9029850.269 8676827.993 8878183.737 8671983.202 8557707.666 9147108.809 7899705.179 8905247.743 8627008.05 8456992.347 8595022.836 8313038.587 8294741.724 8380574.172 8022621.615 8647509.02 8074411.78 8316505.862 8035993.398 8043032.989 8685259.042 9093252.925 8632633.262 8630827.276 8443699.631 8227036.986 8996932.456 8581843.579 8745473.024 
8712568.386 8213415.125 8357739.616 8354993.978 8226701.975 8410546.79 8389393.628 8568891.379 9433047.9 8683034.302 8357253.861 8440310.787 9008313.687 7747708.964 8255408.114 8034757.714 8529457.044 8366909.261 8299202.864 8918026.71 8076730.096 8714190.413 8580632.812 8592671.065 8783079.94 8717687.325 8669915.38 8236908.1 8424058.62 8178612.868 8647819.787 8322390.825 8354666.651 8533829.484 8568820.925 8927565.691 8684213.399 8508598.503 8380224.837 9006173.878 
8474334.784 7863135.547 8437796.682 8680989.067 8379616.765 8714927.424 8807073.371 8294687.93 9373389.243 9045607.771 8238347.909 8128346.931 8784447.309 8999729.53 7797440.834 8419771.549 8406949.25 8605388.46 8573696.716 8548653.799 8426342.44 8598723.331 8476550.44 8332801.431 8155952.884 8493621.312 8845718.82 9040001.359 8558090.256 8183253.566 8841585.046 8710229.057 8454246.507 8263958.428 8449479.413 7993635.099 9124465.944 8904003.837 8374606.454 8365546.364 
8819273.516 8661785.408 8243203.598 8466255.858 7837108.138 8418800.064 9255872.794 7836838.054 8299972.667 8524379.673 8296207.744 8711889.214 8300821.213 8176670.259 8550713.758 8072801.679 8680773.632 8931918.904 8325223.002 9083551.763 8697820.514 8541355.152 8744288.94 8214941.065 8097588.058 8660134.241 8402114.64 8620849.503 8813041.613 7867310.792 8654850.851 8279640.836 8310422.055 8939735.468 8013421.813 8140987.044 9128257.871 8261316.573 8366275.205 8279723.99 
8225550.891 8434005.962 8658695.583 8137205.039 8813687.626 8905819.136 8377290.992 8527635.325 8583063.491 8874639.77 8573495.989 8540825.65 8083327.505 8423639.396 8455132.891 8717513.016 8423492.815 8916636.524 8625833.701 8154331.344 8650378.888 8239047.057 8018211.95 7868697.084 8363551.033 8415992.548 8106204.329 8957197.441 8675366.961 8726828.898 8365825.41 8403591.102 8322254.885 8543285.726 9024489.108 8806577.391 7948392.695 8440208.459 8370768.634 8136706.848 
8219392.956 8189104.906 8532339.459 8467622.471 8754824.958 8463335.604 8736662.542 8446077.546 8431323.365 8471546.396 8613393.612 8626660.31 8656469.957 8411517.797 8516630.427 8852578.111 8740411.171 8203530.725 7847318.984 8998841.538 8119475.669 8182804.31 8652924.956 8321022.166 8266217.4 8778409.666 8689614.032 8680587.707 8303217.689 8444560.562 8128555.052 8518277.174 8315709.603 8752477.157 8526992.554 8895938.547 8736631.291 8566042.687 8081179.648 8688808.664 
8176211.112 8873729.937 8220401.433 8514876.9 8853859.384 8780004.232 7962192.292 8539434.558 8384438.022 8792014.403 8434064.365 7946671.575 8423268.794 8204668.623 8685576.842 7872029.359 8050886.273 8608016.566 8295292.188 8704516.689 8560934.344 8568382.288 8050722.59 8708535.709 8806122.047 8212266.935 8228977.003 8429465.014 8878954.988 8516668.705 8624575.143 8727446.9 8606876.267 8922240.495 8805936.728 8636509.642 8708188.684 9002380.299 8449892.144 8819861.724 
8592588.799 8705650.489 8138987.947 8125466.314 8062122.448 8357608.224 8263819.826 8351649.061 8191095.748 9029602.597 8970082.875 8266887.45 8386395.897 8301630.195 8527608.212 8162985.77 8810562.395 8759329.244 8423527.882 8077725.129 8407921.759 7978666.716 9276971.073 8924908.313 8412570.097 8071907.734 8587286.988 8817130.01 8789700.93 8403495.875 8453235.235 8121379.137 9090274.211 9304297.139 8555343.64 8784199.549 8030738.305 8570188.465 8763827.515 8162845.388 
8797363.901 8682825.952 7933860.845 8265704.136 8473542.465 8833020.813 8843461.959 8651264.929 8277005.913 8729616.933 7895534.537 8361121.766 8706191.718 8286608.343 8521849.548 9014708.027 8495429.855 8179206.124 8412476.984 9262875.21 8456146.945 8915095.544 8369648.373 8404901.156 8704362.409 8451184.909 7976605.418 8809716.476 7919637.025 8278754.155 8365793.425 9038352.152 8424659.693 8770776.604 8941279.897 8521582.707 8668984.276 8057399.784 8148228.848 8749858.449 
8496694.112 7990292.942 8305731.258 8359592.564 8730376.78 8841576.506 8296140.735 8782624.22 8247138.399 8312392.087 8630105.672 8509184.766 8293512.915 8770670.712 8316575.065 8429557.681 7898507.675 8925982.47 8301526.823 8754149.104 8459671.977 8682104.017 7902958.265 8095588.574 8413862.333 8197582.483 8585575.188 8976898.909 8606476.366 8704682.818 8900545.862 8421306.52 8145988.841 9207268.081 8026258.838 8387055.187 8524433.708 8193986.87 8734508.086 8230748.9 
8416751.47 8390552.077 8682794.246 9223071.198 8280247.767 8290492.397 9088794.529 8561239.476 8223569.808 8924598.709 8635419.643 8270720.38 8936787.744 8129354.736 8694699.767 8436097.241 8791335.468 8522540.525 8574259.457 8100932.708 8533137.744 8674244.198 8529027.415 8417771.195 8985189.585 8318248.826 8848966.726 8656063.782 8302597.785 8477388.186 8065597.267 8436778.778 8319656.275 8218909.253 8808364.357 8356450.736 8707583.078 8220673.562 8378253.561 8452307.919 
8413679.111 8300937.107 8570874.341 8415824.168 8464946.888 8418417.886 7993290.291 8020090.376 9106222.557 9077098.507 8455222.621 8191530.791 8442774.19 8653367.784 8560722.398 8338119.477 8960380.027 9177176.428 8796472.43 8174533.553 8376524.113 7916824.629 8309011.144 8376444.845 7884802.977 8825532.272 8438048.302 8495000.526 8134921.848 7635975.051 8601365.399 8327956.304 8547326.212 8315954.945 8515366.749 7786126.329 8938605.376 8281678.256 8569098.395 8229352.558 
8516494.581 8576611.788 8567411.133 8938824.068 8551791.712 8717660.711 8165916.495 8010641.178 8653959.667 8260533.827 8597590.225 8887226.005 8238763.731 8613232.254 8597820.562 8131336.855 8258792.392 8879280.508 8934381.801 8715708.271 7819207.233 8492482.358 8910563.706 8687341.769 8209586.569 8819347.466 8844559.25 8478505.567 7823465.939 8607008.285 7766479.501 8258924.57 8623871.334 8561551.937 8275505.48 7831948.052 8427350.164 8330567.88 8188228.045 8704266.989 
8430626.805 8473806.817 8814112.315 8046239.905 7839560.926 8496830.455 8465135.656 8259419.786 7604855.63 8871703.367 8548108.31 8115968.813 8528995.125 8871054.818 8515710.985 8609642.643 8309145.616 8381981.575 8186424.456 8591005.74 8334741.897 8686825.607 9396654.033 8111646.806 8116232.997 8363312.278 8572213.657 8614213.52 8710541.952 8802823.477 8189529.559 8488797.537 8311678.94 8967616.274 8962493.916 9105427.206 8467651.458 8465938.121 7993717.35 8182867.95 
8302179.093 8736039.709 8815025.508 8384537.668 8734973.944 8336107.579 8901948.045 8534332.946 8343664.465 8152622.659 8987308.096 8896104.267 8815385.482 8421376.711 8417516.668 8356764.717 8452247.085 8545333.316 9062602.973 9235249.988 8907775.842 8150293.076 8816842.779 8249099.853 8347219.917 8799586.516 8223172.638 8481278.427 8519678.955 8351883.596 8356259.717 8652046.951 8162908.263 8239404.92 8842964.113 8766508.595 8896915.338 8731902.901 7992799.696 8939732.165 
9037177.6 9066914.037 8024564.702 8749288.709 8731936.458 8365643.098 8304639.548 8030698.044 8576522.787 8366638.302 8508943.39 8077610.699 8943482.97 8790678.479 8438328.669 8633270.125 8946304.247 9025100.886 8675950.812 8577440.702 7803827.83 8656953.476 8972903.748 7908260.205 8684925.979 7751891.385 8823349.158 8724771.966 8621659.243 8187720.926 8655658.092 8832821.246 8345912.386 8633003.191 8711223.521 8464185.965 8547217.036 8480576.683 9095149.581 8452335.641 
8156910.155 8467921.641 8053803.445 8415968.665 7931508.29 8470457.396 8633119.009 8470718.071 8408307.708 8387401.793 8456142.863 8742604.458 8396749.421 7756381.761 7990649.928 8587300.16 8414975.953 8055114.678 9051858.202 8732666.188 8650486.823 8750407.066 8127731.914 8100011.635 8404730.738 8804638.854 8823532.825 9159895.737 8669956.259 8332731.541 8637312.808 7957055.319 8821658.114 8433426.262 8493686.077 8725883.844 8170635.843 8923271.964 8107097.5 8082856.668 
8439960.981 8262572.74 8758882.061 8605043.455 8557128.502 8442454.818 8476084.814 8895643.932 9252142.029 8034478.642 8186380.096 8706285.516 8729185.045 8714384.402 8359943.732 8874013.714 8172984.486 8336477.757 9092041.766 8292074.641 8596256.674 8815052.9 8831264.019 9222842.857 8691602.944 8189849.022 8422882.31 8246309.539 8447093.559 9230920.135 8283726.165 7786517.805 8181438.456 8251542.747 8475011.479 7813513.998 8399005.87 7992989.826 8584942.937 7856396.103 
8583801.968 8504167.442 8854300.917 9164222.791 8801312.969 8245986.451 8951838.63 8311677.348 8629098.347 8512119.167 8201224.444 8330856.688 8282340.488 8563236.5 8288109.391 7910637.325 8433713.085 8341388.799 9151476.363 8424830.764 8683695.091 8503463.757 7923866.904 8503013.114 8670405.023 8229323.815 8878071.465 8313751.55 8483269.906 8198730.937 8472485.728 8728058.105 8339685.699 8574919.244 8272368.596 8731667.952 8619068.313 8181348.029 8335066.257 8840032.778 
8165814.65 8381382.668 7881405.736 8534924.377 8424115.485 9141433.023 8811510.676 8459283.485 8305667.359 8609178.993 8551594.714 8694882.655 8235703.04 8727745.011 8785575.328 8858215.389 8790437.029 8519320.996 9251556.961 8288646.538 8503103.85 8518467.948 8441608.417 8002365.426 8034344.963 7985623.245 8746192.185 8098034.36 7880625.488 8822211.407 8206044.043 8503673.049 8454022.929 8175023.33 8778587.923 7937632.916 8458931.313 8229573.912 8067257.865 8228740.717 
9260465.309 8489879.966 8909683.119 8827329.344 8366167.086 8210452.919 8685252.745 8026319.008 8341748.533 7908012.779 8658428.95 8686430.011 9010834.818 8958698.696 8452392.304 8629594.012 7991775.182 8435853.735 8522777.464 8945993.516 8768466.361 8291043.211 8673705.464 8442924.699 8443243.946 8320758.924 8981046.603 8094797.78 8412987.17 8635492.864 8104314.232 7879949.398 8020635.685 8293531.384 8613819.8 8483742.292 8790828.726 9068691.094 8151073.528 8336382.121 
# Events [m2/m2_1570866817.x_y] N:
610 603 648 662 636 628 636 604 637 609 614 603 616 626 625 607 624 636 659 624 605 608 628 614 661 595 622 598 624 629 641 612 622 614 609 641 625 585 614 678 
660 596 610 634 622 609 606 646 629 603 629 679 612 649 628 621 631 611 602 664 623 606 617 620 582 562 589 589 650 637 645 611 655 654 598 646 673 649 660 647 
609 604 638 620 648 603 674 630 677 639 604 650 607 566 637 630 636 597 597 643 608 638 655 604 667 605 589 612 647 628 640 671 631 652 574 610 618 612 645 622 
617 613 658 617 644 619 616 620 624 611 628 643 625 625 641 666 611 594 679 632 663 620 616 605 640 621 629 643 639 615 611 639 644 659 653 633 630 647 578 635 
653 627 668 638 626 625 590 621 633 660 668 624 651 631 634 616 636 620 605 632 657 582 619 649 611 603 644 602 618 626 584 626 628 623 607 623 626 637 623 605 
655 635 632 605 627 599 624 634 597 597 627 659 622 625 631 617 612 656 617 621 667 623 648 650 642 658 634 636 605 632 628 586 619 626 630 665 654 581 615 631 
669 621 633 621 618 569 561 584 592 661 624 648 653 588 646 622 653 642 611 599 651 584 598 644 598 615 630 609 623 580 601 659 663 620 613 592 665 647 637 622 
627 590 686 634 601 696 642 581 628 651 653 597 645 615 603 636 626 622 600 651 613 596 656 688 585 653 600 620 617 641 615 613 597 633 614 610 637 640 614 589 
614 632 581 634 609 633 622 557 573 646 635 658 621 626 647 654 632 605 636 604 667 637 587 622 626 618 633 602 553 645 642 615 609 577 614 624 612 605 662 652 
651 606 626 591 563 626 618 608 672 604 590 628 639 635 676 646 682 617 666 634 636 613 614 604 626 621 648 592 561 612 673 656 621 595 619 639 594 628 635 612 
634 630 617 653 635 623 635 628 623 629 680 635 607 657 624 607 617 635 629 632 627 594 625 617 595 641 621 659 614 684 641 642 665 643 664 635 646 586 622 629 
628 647 677 598 588 589 643 672 590 613 623 600 623 624 652 651 645 641 605 645 599 598 612 668 598 655 600 642 600 569 606 600 586 621 664 680 606 618 618 642 
583 639 609 614 609 647 616 647 632 587 634 659 674 634 625 618 637 610 663 613 675 593 621 644 655 655 620 637 587 602 625 590 634 588 640 614 573 613 644 601 
594 619 666 640 619 706 599 609 607 657 625 611 613 621 640 597 594 604 611 635 607 623 611 680 650 607 637 621 601 642 633 598 635 693 622 602 589 598 616 648 
636 604 618 656 617 607 601 601 625 667 644 629 617 637 648 641 597 599 648 619 631 574 615 587 667 647 633 629 634 644 652 601 658 601 657 597 590 647 625 627 
626 651 636 664 647 638 589 631 651 633 611 587 648 599 620 603 569 632 623 665 611 653 647 624 645 580 645 675 649 606 626 654 667 627 657 616 617 645 682 622 
643 611 603 650 605 590 649 659 622 633 605 631 641 655 610 646 629 627 703 614 631 609 635 607 607 656 632 643 611 614 611 613 621 680 648 626 623 621 625 649 
637 633 650 651 625 606 623 633 658 640 608 657 608 620 623 627 632 601 665 639 632 665 618 619 647 606 649 617 626 663 638 652 613 638 626 621 629 609 634 661 
655 665 681 606 605 613 640 627 639 626 615 610 630 619 674 631 658 568 630 610 647 619 619 628 584 634 617 631 626 590 629 622 585 606 615 597 615 604 614 560 
642 600 677 623 618 629 599 631 574 658 649 653 590 580 663 677 650 573 611 585 585 646 607 610 617 598 611 562 618 638 599 620 614 603 599 634 601 604 592 645 
608 625 604 642 647 630 636 664 657 672 544 693 666 612 606 628 651 598 650 591 586 612 620 655 648 625 624 578 653 604 597 630 638 653 599 631 608 617 657 631 
617 580 636 624 620 643 619 628 686 707 610 570 626 621 582 598 630 604 630 619 593 615 655 634 639 603 633 659 625 625 611 626 616 645 613 596 639 675 625 631 
649 627 620 640 603 610 645 592 613 668 627 626 613 571 582 642 620 669 594 626 612 600 661 575 645 626 606 661 629 576 613 601 630 618 588 593 661 629 607 618 
642 613 664 603 608 651 603 632 646 666 614 627 603 634 652 634 630 618 620 621 615 619 612 565 608 627 602 630 623 623 599 647 631 610 619 648 629 611 611 633 
613 593 628 607 680 664 626 630 638 629 611 647 631 639 619 618 633 600 601 657 570 618 665 589 646 646 616 611 611 607 588 631 627 632 609 629 627 620 593 610 
613 629 591 623 634 662 592 626 624 678 615 556 621 608 664 602 598 611 627 648 632 554 602 649 639 644 608 631 624 627 625 590 637 633 648 623 660 643 602 663 
642 640 613 602 626 631 616 629 602 629 637 589 623 634 636 559 670 617 623 625 608 623 603 580 623 619 636 646 663 662 626 597 647 661 641 631 574 644 631 575 
673 595 583 653 618 635 638 616 602 630 591 627 652 613 645 619 641 577 603 673 636 646 645 603 621 647 625 608 585 615 643 689 610 655 649 633 609 612 613 616 
662 608 631 613 632 640 620 603 658 624 641 624 609 651 628 611 604 663 597 645 653 621 601 627 588 614 622 590 623 592 640 625 610 647 665 615 622 615 623 563 
646 600 607 672 622 644 656 629 591 615 618 613 651 618 642 615 641 668 600 643 632 597 622 630 656 631 668 604 604 662 574 624 632 608 654 603 632 615 613 653 
619 605 621 638 619 627 654 591 626 707 619 621 625 639 615 611 621 656 654 633 610 611 614 585 675 643 654 615 596 591 631 605 653 614 622 593 632 609 644 625 
650 616 682 657 640 642 594 624 624 590 656 643 641 661 620 592 602 648 646 637 618 607 639 566 632 639 627 575 617 635 597 642 648 668 615 602 636 600 634 597 
608 611 660 614 617 633 598 613 596 606 615 585 635 629 641 650 604 636 594 615 622 657 661 608 610 637 623 648 610 637 634 627 604 655 655 633 611 645 614 641 
610 608 621 629 647 612 655 633 598 620 648 614 648 611 626 618 655 616 651 612 649 619 668 623 630 620 595 622 593 619 617 619 636 602 629 612 635 641 649 653 
659 655 642 607 645 609 642 646 611 632 649 596 642 643 575 607 629 643 619 619 621 591 670 577 590 608 626 634 633 599 632 626 649 639 664 583 598 609 621 594 
629 626 644 677 573 637 656 654 606 639 617 623 654 580 621 614 638 600 648 666 630 622 614 604 655 599 670 633 617 617 605 613 625 647 623 645 631 616 647 576 
616 613 639 632 615 576 615 667 655 619 605 659 655 653 619 629 583 649 658 637 612 598 645 648 646 623 595 616 634 622 587 610 652 631 632 591 615 601 618 619 
609 652 622 664 677 626 624 611 611 608 605 627 620 624 597 609 595 671 620 614 607 622 571 601 632 616 662 609 655 578 610 594 596 609 630 666 624 646 644 619 
569 613 601 636 627 605 620 631 625 611 593 665 654 669 617 649 639 602 644 675 603 642 650 585 610 618 603 601 580 612 624 618 620 600 656 563 621 605 608 636 
645 596 622 676 603 675 623 573 618 581 622 612 625 628 620 652 596 646 599 676 642 648 668 610 624 614 607 619 585 635 598 619 612 594 603 626 625 620 673 602 
