# Format: McCode with text headers
# URL: http://www.mccode.org
# Creator: McStas 2.6rc1 - Oct. 12, 2019
# Instrument: Test_Sources.instr
# Ncount: 1000000
# Trace: no
# Gravitation: no
# Seed: 1570893944
# Directory: Test_Sources/5
# Param: source=6
# Param: Lmin=1
# Param: Lmax=11
# Date: Sat Oct 12 09:53:38 2019 (1570866818)
# type: array_2d(40, 40)
# Source: Test_Sources (Test_Sources.instr)
# component: m3
# position: 0 0 1
# title:  Intensity Divergence Divergence Monitor (Square) per bin
# Ncount: 1000000
# filename: m3_1570866817.hd_vd
# statistics: X0=-0.00387376; dX=1.66078; Y0=-0.00104582; dY=1.66;
# signal: Min=2.8329e+06; Max=2.14902e+08; Mean=1.51203e+08;
# values: 2.41925e+11 3.39933e+08 999973
# xvar: Hor.
# yvar: Vert.
# xlabel: Hor. Divergence [deg]
# ylabel: Vert. Divergence [deg]
# zvar: I
# zlabel: Signal per bin
# xylimits: -3.14397 3.1424 -3.13902 3.14518
# variables: I I_err N
# Data [m3/m3_1570866817.hd_vd] I:
5040682.106 10691184.52 18825014.98 28433893.68 34105086.72 27687968.38 32146360 35281367.28 29717362.55 22670515.46 24443408.64 24944465.18 26725764.23 24617767.07 27028991.87 27112943.62 23791633.26 30350587.39 26253620.43 25851432.04 29880356.72 26644952.63 27820179.05 24878670.41 28360688.99 26229216.04 25605568.36 29216139.2 31520429.98 19915324.98 26437638.86 23012063.93 26210517.58 33160620.45 36709675.59 29263339.12 28862559.9 20334421.11 12313226.46 5672854.933 
13286006.1 23731550.29 51859761.29 72026910.35 76659719.92 73352248.01 72888224.58 71808061.57 79285392.47 83734129.54 71335260.49 78725892.65 77479673.57 84469682.31 73265124.44 83814153.85 72615240.11 73788981.74 72187187.15 79124489.27 97677036.01 72357241.39 82883643.08 78211837.05 72859465.85 79468071.11 89591952.68 75277012.42 76263324.31 89453038.18 81161872.85 77944855.81 72435197.47 76726143.9 70537719.08 82203459.65 60696773.71 52325531.15 42198423.26 15339062.09 
17214352.74 57756151.37 96026067.47 118617688.5 124098633.2 125923608.2 117676536.3 118606676.1 138415951.8 115890150.1 131424452.7 128139163.9 133540133.2 117883395.5 131259503.7 127367952.5 126461531.1 124857093.3 141863718.1 120042170.9 114927660.8 117419126.5 123074377.8 125774145.7 131296806.3 117871827.8 121604605.2 127226147.6 135169648.4 128158061.8 130667319.5 131811161.6 122642068.8 117353495.4 116352962.2 142931219.1 124440351.8 94083006.29 49533865.56 17868107.5 
23971894.32 67372692.57 122770994 159050038.6 185716153 167584838.2 156060095.3 173952886 160440790.4 183061574.7 171854850 188503408.6 164323316.1 174494706.5 178288279.3 169503342.2 180065354.5 177426443.6 163581940.6 171679985.1 163216172.7 193142334 188371493.5 163217492.6 163199451.5 159279623.4 165909003.8 179423126.8 178457290.3 148759711.5 149068816.9 177972095.8 183425406.2 170517880.8 178575466.1 178567224.4 159561689.3 128793167.6 61067154.64 25941015.38 
22391028.71 89939669.14 121564439.7 172240249.2 184589445.6 185834629.7 192781121.7 177443630.7 182430208.4 194218593.9 182533114.8 194939170.7 174388656.4 187922517.4 179907611.8 184428418 179266047.1 178164430.3 182450337.3 197138794.2 187716757.7 172297250.4 200556326.2 177446199.6 171388759 181679548.9 182162720.3 176060488.1 161627849.9 174087054.8 190815709 203369340.9 186182372.3 179124038 183558211.1 198124080.2 168163856.2 128726109.3 70721371.54 27253967.67 
29358057.96 74486981.51 130841307.4 167423436.8 178925437 184526489.8 168934515.2 183314743 185694399.8 173106233.4 199460565.1 178834695.6 171724748.9 186883471.1 190093015.4 178993843.3 178523376.6 162450680.9 177751962.4 183196891 190377676.6 184013884.9 183486006.9 188543690.7 189982257 194656848.3 191515339.7 182555558.7 174638998.8 183373942.8 202335959.9 177127613.1 193885178.8 177060610.5 159820938.5 191518721.6 160567689.6 141461253.2 74652785.71 24111106.07 
26847515.16 86270624.24 139892269.9 178817706.1 174824578.1 183459727.2 178167657.9 161950109.9 169052303.2 183097383.1 188933141 181669409.2 187764625.7 187085199.6 197238371.3 189088162.7 183710681.5 182263508 177031511.1 180946561.5 177510545.6 171223938.8 178098024.7 179665560.9 189433651.3 175301979.1 192729206.7 173080487.1 160171158.2 178652294.7 198826747.1 184237186.1 178137925.4 182715521.4 184675457.8 180105649.2 182589776.9 134892498.8 80972386.28 22242665.42 
29572998.33 74529928.81 124316970.2 191330154.4 177873787.2 186123824.7 181463463.2 198567433.3 178644654.8 173771311.4 195293624.1 194286991 185425508 197256637.3 167930240.9 199867845.4 185973219.9 184873680.2 172090990 183110283.5 175809567.1 167988710.3 166891161.6 183754026.4 170100273 182134613.2 194927509.4 169380259.5 176896892.5 179205177.1 206760354.1 178672377.4 180657498.8 166896979.5 183109683.8 182264104 171284984 125552220 70685551.87 28312484.04 
29360355.39 76312871.72 124635898.3 163941152.3 178403676.9 191117383.2 170225327.5 188369914 161142207.6 177716479 189727881.9 193408178 197399811.8 175842594.7 182733899.2 171402531.6 199284511.1 182742965.9 181291658.7 172159846.9 175944956.8 178381732.7 169018814.9 192535289.9 185780480.6 193096090.7 184366370.7 162587302.7 182328794.5 171842339.7 181333208.4 162933545.6 176892003.3 189041391 165462435.4 174743289.8 176762751.3 123410324.2 79246969.91 26950568.7 
27915546.92 82336705.13 126303534.9 170917111.5 173278668 162077764 170668310.7 176030566.6 194221413 172822420.2 181768188.4 199048009.5 173350310.2 175048694.8 185987012.5 188238187 185746579 184160096.5 195661199.4 178893983.1 183741823.5 182003177.5 192666962.7 177453726.7 186000874.1 186764897.3 183428214.7 160546990.4 188018875.9 194967368 183863971.5 191643367.9 181237931 158246876.9 181724946.9 185319180.9 162562354.8 117907603.2 75854113.75 29463652.82 
24514351.81 80077740.99 125268993.5 164553741 174550764.2 202179902.5 181700684.4 181218700 180197171.2 183466804.9 190646793 177037951.6 192714795.4 183442937.6 180390504.3 191588460.7 203587722.8 190640102.5 183914719.5 170323272.8 190684691.4 179173952.6 192434276.8 170468940.4 174491909.6 186911140 177258035.4 178896393.9 167338275 171150223.8 198761986.1 205453684 176602182 171708028.6 180684160.4 189319490.6 193144207.6 145479757.4 77024775.56 26931892.62 
30845765.12 80744708.43 122706787.4 174600273.9 175960750 192377887.5 191270152.6 178382006.5 174666261.7 195693171.2 194105094.9 187303039.1 179578657.9 179665882.8 192664429.7 177174872.6 189267841 181750602 183634427.5 189172544.1 181815188.8 195926669.5 177393934.1 191323291.3 186028508.7 177440667.2 169691300.6 196886474.1 163336488.3 182948216.8 178014226.2 184827747.7 195881564.1 171482740.2 183500356.8 171590582.6 173073671.5 122349624.4 72725217.13 21477015.35 
25345506.06 74867642.49 117583725 191634702.3 170035090.5 161820500.5 176997211.1 203232052.8 188616500.5 183869902.9 180217440.2 184839245.4 187875349.5 197301203 194562538.7 189881215.1 164390290.8 187340588.5 213936307.7 176719871.4 200464650.1 187548448.9 194930206.3 178316371.5 184600901.7 191271151.7 178012687.8 166123220.4 179962516.7 188918564.9 188132400.2 186815621.5 177307492.7 181605533.9 184321108.8 184896477.7 178785236.3 130022970.7 77218887.45 24007964.25 
27752883.23 59880068.47 116303123.6 184050895.3 171844189 193466059 183201761.1 186366114 183736614.6 188610648.6 189657573.3 185291929.3 181367229.2 196457730.3 190686308 177968683.1 194462143.1 174153718.3 182717551.8 164291453.6 207993195.7 174277868.5 175627177.8 185199056.8 181013503.5 184272240.2 191857934.7 173002228.5 196784805.2 181748442.1 181887132.6 169127032.6 197468934 169993808.9 191896604.7 167216444.9 166877120.6 125027253.9 77440336.64 32603762.72 
28547387.89 79510315.91 134895611.5 173581105.5 178418892.5 178546761.7 184576454.1 207750396.3 188454102.3 177534091.9 178859864 192115386.2 160962042.6 179927161.5 182539848.7 188147143.6 186013204.7 166697465.9 181125455.1 208658299 179757386 169966166 197273611.5 189777745.3 194921633 191271416.8 176996214.3 177604971.1 190802158.3 187594655.4 181208426.1 164197638.5 170504977.2 180245997.3 190417198.1 182358359.4 166437418 132053566.3 86289831.57 24482340.13 
21927053.47 78794981 124679299.5 175266426.7 195030606.1 182299269.8 176397044.5 176975566 173429216.5 195046875 185229917.7 189353889.3 172998375.2 182520129.9 190440933 189668437.4 170084748 187818864 176272585 193971529.9 195434715.8 196275759.8 192602386.5 196271306.9 171621055.5 173912774.3 200099320.3 198866134.2 175430963.6 182064674.3 196204523 201299204.7 186011040.8 174582299.4 188111775.8 178718275.6 168919744.3 125557070.2 78921700.19 27012174.51 
21261262.71 80946864.93 118051105.4 182669074.7 184949855.8 179735601.2 194735217.6 169228261.7 169016442.8 189089929.5 170301934.8 196729050.5 180972072.9 173721363.6 174316264.7 176011917.7 165230257.7 182657259.9 182095528.9 177041887.9 205480672.7 192808251.7 173545649.3 192410993.6 183690309.9 176862369.7 190273764.3 181461760.2 179223926.7 194076289.4 171591159.6 184337500.7 174641266.3 202782257.4 183311307.1 179874377.4 167504209.8 139315085.3 70918191.68 24762950.98 
20270823.64 85789214.63 121395952.3 177475407.7 179772937.6 182910461.5 178745533.3 186567526 180806233.7 187708773.2 186815222.7 167811785.7 175024706.6 181079288.1 175910287.8 175209862.4 189270893.2 185523417.9 194005081.3 185290229.6 193444121.4 179652484.7 168237291.2 171876621.4 182969345.4 186491394.9 188492042 172205095.5 174337049.6 178709630.4 177793797.2 184286873.2 188536124 184900692.8 182795593.1 182999924.3 185445592.4 147974358.5 89858984.29 20375310.29 
27251154.33 76724337.02 138184262.5 159194402.6 169792801.2 185857161 184895248.1 190165594.1 178320079.1 168963300.1 197365220.1 184462298.7 172236400.8 185395471.8 183694642.6 200474429.1 184339123.4 184151749.2 203768603.9 196642614.9 190031913.1 166385376 181656673.2 173027569.3 180012153.6 180028243.8 184089429.9 176233777.6 193529834.5 191070161.4 189417739.6 165567778.4 183423723.3 184272511.7 167543965.7 169621230.5 166772624.8 137202157.8 75175182.26 18389927.64 
28148806.06 78797965.13 130777301.7 180105775.6 183458943.6 179880959.9 184344342.7 172808998.7 207547564.8 192596501.6 196981740.7 184700302.7 201234992.1 168126352.3 176614822 172315277.4 196713622.8 197648716.6 172680883.8 180926910.1 181143644.6 186988473.2 190295614.4 177378839.9 182501329.1 189064167.6 166741668.8 181366039.2 169824141.1 164781396.9 186045502.9 191335594.7 178321331.9 183583993.8 162479000.1 189093714.7 176584632.9 126267434 76280108.97 28835410.61 
34701121.37 72844874.68 121278451 177856084.9 172150123 172990493.7 194772413.1 180224401 179687348.6 188624013.8 199819842.9 184221069.9 179366898.9 175758494.5 188003547.3 185141057.1 184625523.4 184002909.1 177973278.6 187388939.6 166140312.9 188135167.5 166847883.5 172553978 176480133.4 170735406.7 174486588.5 183469072.9 165356102.4 178028876.1 175317024.9 190941264.2 180977225.1 190727307.3 189173661.1 175340313.2 168655455.2 128136001.3 75354178.33 31493718.61 
27007769.26 82032604.24 136246582.8 174817373.8 165738176.1 188172271.2 187746436.3 180548481.5 198815661.7 185266147.6 176522435.6 180508919.9 168798736.7 172378095.2 193777638.5 178749444.8 190973915 184418705.9 184531184.9 177773672.1 185913321.8 190383611.6 188083594.1 184392733.5 187346929.5 197773510.6 182685027.8 174683300.5 184066605.2 183591176.5 177275670.1 162130399.4 181527428.8 193928407.3 185454290.1 182805684.1 172134565.8 127555239.4 85397472.52 23741189.15 
20167635.86 74238114.8 131386516.9 182034455.8 182115767.4 184741684.5 179440667.3 189926367.1 179090148.2 175135555.9 179630524.4 176990271.9 183746629.6 183023404.7 168886140.2 179596519.3 188582467.8 184146544.6 170616590 170110307.8 192500249.8 187813935.1 160062521.4 189908828.9 194241579.3 170723392 186970705.2 171274790.4 185426431.1 185157233.1 180909091 186125755.5 182039608.6 183948414.2 173454641.5 181096006.7 193958653.8 130037389.8 70481606.16 29907592.3 
30735409.72 78000384.02 123512821.6 165860579.8 186222447.3 183270963.5 185265946.6 184460612.7 189271440.7 177610572.5 180727974.6 214901639.5 177935272.5 186280716.4 195028131.8 162604936.1 179444665.2 177511439.8 175684478.1 188099667.5 191036790.2 174671834.1 183667610.2 180834733.9 180464720.2 180604350.4 186584711.8 181193374.8 186195052.6 165607160.8 194355762.7 180401924.4 182589653.3 170659618 174748468.4 185024447.3 180959718.5 113820566.3 77046588.61 29557969.91 
26983840.82 67428723.91 125324011.8 167978522.3 185189825.5 171627804 174397146 187533493.5 172172177.2 164462729.1 177313026.6 186368147.1 175636620.8 169393530.5 178135992.2 192234013.4 181892387.3 186443344.2 182323885.5 166646170.9 189203119.1 165517787.8 158340616 185262501.7 174102961 177240665.5 194113731.9 195042644.3 187759677 180228630.2 192067152.6 195973364.9 178653049.4 183733025 199912594.8 172163497.3 167803282.1 111733484.3 73356666.2 24299451.05 
30729844.82 76566208.5 122422508.4 164273513.6 180749511.7 181247573.3 208901201.6 190736525.4 178030984.1 171702157.4 183080771.7 177318377 181611134 182544808.2 165942340.6 183083917.1 187987134.8 176291854.1 171948915.1 179393770.9 197993609.1 170575585.2 182770983.3 180698464.2 187900547.9 184814561.2 185428492.2 171992704.8 190696476.2 174002393.8 186819812.5 183668116.4 204010919.1 187335230.5 180227928.4 173273041 169152516.8 140304839.5 79487375.03 32590920.87 
38532554.85 72455121.78 115672667.1 174377456.8 187628763.8 178764930 189326653.8 185425200.6 180902137.1 180576831.3 181423462.6 184136918.1 185934036.1 170967422.7 183045858.8 173182219.5 190841735.2 182474763.1 192641722.2 172710348.9 165780079.1 167564454.7 184976570.2 188522152 178207606.8 177935789.7 168673747.7 192528549.8 179353077 184024375.3 195981957.1 180660106.6 208227583.5 180008127.9 175912814.2 196855535.5 170937060.9 132504733.1 70898166.49 25827250.76 
23824032.1 73856186.9 125668494.2 170474372 180345633.3 187463999 189132299.3 189573479.5 180263078.8 180329335.5 168338725.5 175455945.2 176693645.1 169889407.6 192577320.7 193275264.8 189512696.5 176553666.4 177653288.9 172986521.8 183631384.8 168921905.1 169009590.3 177525970.2 190611253.6 188268708.6 182854026.9 172030674.6 184398586.7 170347492.1 181650299 199020184.1 180292403.1 181785799.8 169967913.1 174268268.8 169040568.3 128312209 67537875.14 25906604.01 
28433917.88 68259928.28 131619430.8 153382230.2 174201800.1 201398943.2 185640697.4 181580524 169552793.2 175625191.4 183040864.3 170213809.4 185995640.2 182585424.5 175657820 187486207.4 185249478.2 178687921.3 192766508.4 182612482.9 203029885 185384450.1 197391236 179863407.7 200683072.3 146645584.5 181537448.4 182526286.2 189519656.9 173971627.4 187607851.3 164160249.2 193559039.9 187673817.8 173591100.5 181692179.8 173129429.2 125862952.5 76467383.66 23523780.38 
28049323.97 78948003.19 113186231.6 175264724.8 185277438.1 194635947.1 180461098.2 175892525.9 200602735.4 187531229.3 194453891.1 187159512.7 179071504.2 183407764.1 176573587 177817215.2 195079727.5 184858259.9 193791857.2 183944659.9 180392980.4 173165300.4 156312723.8 174133121.6 171807223.9 172766268.9 200154079 170477077.9 177686864.6 190556883.4 189322583.4 191398519.2 169872714.2 175822178.9 167182461.9 169131684 172985996.1 119477420.9 87879445.34 25283952.9 
23601552.5 75602069.98 137991961.5 161499168.7 168925330.6 170662697.9 173930301.1 187198123.1 180591158.2 180615450.3 172894888.1 172117559.7 198945449.5 183417810.5 183605115.2 181514143.5 171292436.8 200422460.4 176943759.9 182156923.5 193003883.1 172878193.8 177615709.2 200785703.4 177838065 180174974.1 183931945.7 174524921.7 176857976.8 162219291.5 191187068.7 191838264.8 191263969.6 177577749 180870214 180929701.3 175269242.7 121490115.4 66911824.3 33355787.04 
27476628.53 70990491.94 141158394.2 181963014.1 184458661.7 182083905.4 184717452.9 196935958.3 191471010.5 183002394.7 185825285.6 181183595.7 190037020.4 185620977.4 203067399.2 175306280.9 186002709.9 196916821 190324393.9 181818899.5 180522648.6 184243461.1 169478220.1 185806352.9 196874805.3 185733325.1 178851205.2 175168947.1 167341978.1 182517677 173444359.1 184202041.4 174152560.2 193240606.4 181290752.6 190230535.4 173857860.3 133249236 81250850.65 27330053.61 
25991910.05 74105025.79 137218453.7 173079010.3 154793980.7 171049428.6 185764852.4 175153399.2 180791360.2 189183858.6 187300336.3 186361640.2 186213271.3 181243211.8 178639279.9 167841751.6 175721405.7 179304015.8 179393176.5 207439916.4 179468409.8 190867246.5 172936723.4 195163280.2 170012187 203470903.9 184669812.6 177860154.1 173998688.4 175276752.2 191373292.9 169092602.2 178705388.8 181537699.4 168356598.2 176753570.4 164695271.2 129097192.2 86832225.81 22709407.18 
28550255.78 76946801.87 120877077.8 174324209.3 195945966.1 177720645 180346721.5 167654436.2 164588425.6 184071103.7 170749858.4 177721981 179311551.2 182408757.9 193773482.3 177360371 181042337.2 189289299 190260902.3 195927885.6 187885019.7 171914092.1 173666829.7 163909503.7 188057873.4 192528986.8 173857889.7 186607076 175985246.8 183605089 187386560 186111320.8 183782500.3 184876598.5 191427630.7 182497249.7 164306419.7 113645414.6 83430083.86 28213152.78 
21760944.56 71408937.72 131622372.4 181077373.6 186455807.7 202565356.2 168142601.3 172715206.7 182431281.8 182268915.7 182732666.3 175988776.9 180690935.2 180910231.9 177983138.9 178086548.1 177185018.5 183203782.6 199398134.2 184369276.2 189352108.1 193003273.7 178056240.1 194361304.7 190580304.6 180929281.4 194940187.5 192170851.9 186614484 166126556.2 186745460.5 172482778.4 190468003.7 190119998.4 195272291.1 176633814.3 166459201.1 132060731.2 76669428.09 34123379.56 
20627635.15 83839894.54 110713026.2 182306351.8 196325757 194515304.9 181176933.8 201476550.1 182345255.8 178373535.4 181037680.3 183980113 181054936 188676462.2 189060141.1 192545791 183254156.1 184070894.9 175399335.7 192932176.5 179230316 188602049.1 182442184 179731848.7 176149885.8 178070503.9 180006950.2 175159174.4 170842141.8 175952046.9 168609010.9 190253256.1 158448502 177300291 182970281.2 175980081.6 194333819 118134628.5 59612714.31 18075289.37 
35790020.06 67667377.29 119469002.3 168171969 182348599.9 173110076.8 164990462.2 190315304.6 176320661.6 172015802.6 185656114.6 150846822.5 172481522.6 181099445.7 173412153.2 158395080 159092418.9 183654108.6 163870281.6 180844529.6 172328521 171422801.4 160912161.1 157607482.4 163505002.8 178087649.5 174776466.8 161524059 178983112.3 171480843 167849299.7 174281671.3 175534765.7 157721268 171214777.9 165794498.8 177006178.5 118079207.3 69566490.7 22688377.44 
17379677.88 48322828.27 95414439.63 123015530.9 117019050.1 129738396.6 132311715.9 132287588.7 129618653.7 117018449.9 132122228.9 125772404 136209917.5 132975309.3 128530101.4 134810270.4 118883914.5 127852823.1 143929326.2 131573104.6 127811124.9 126288407.4 126275717.4 115187445.8 109488625.4 119501366.2 115037312.4 115745557.7 138048036.1 124252714.2 116738801 127280766.9 129474394 113588018.8 118647223.5 114994488.7 135799278.6 88657647.42 59120300.91 13581976.98 
10358665.15 32929802.13 55195603.62 68828714.83 77442704.97 75246876.08 80725261.03 70709650.51 64411265.4 73784586.73 64594840.98 62938370.26 79857636.95 82419215.84 69411258.7 81976484.58 83643398.5 84194768.19 75701892.17 70909731 84535601.65 87163462.66 74785372.94 83196598.1 63409316.39 81017738.66 69639933.4 73078485.83 80488946.26 78319438.12 67847173.76 72313356.79 71984685.41 66557345.7 68612946.61 81417215.67 63303973.85 55852398.38 39067535.81 14432862.05 
4632870.714 10424145.66 10615841.62 28604070.66 33076671.11 29994020.38 28783533.11 30059400.6 28724610.65 26833199.01 24576378.03 29751185.05 26122091.63 27002038.8 26032219.02 27668073.75 21477647.24 23805422.75 25393693.21 20265058.83 25048189.93 24046422.17 29123414.52 25047679.56 27772859.94 25902031.96 29150663.25 30440547.99 22033668.75 21027487.31 30261272.59 26042539.35 27329563.53 29354788.99 30629266.18 25735802.21 27031072.23 14665501.07 10648368.86 2832897.31 
# Errors [m3/m3_1570866817.hd_vd] I_err:
1925771.473 2210382.821 3018960.527 3555774.657 4154595.901 3600465.6 4151323.883 4447919.684 3693734.137 3114826.534 3265548.234 3451023.682 3300591.819 3489689.547 3497137.317 3550462.714 3356118.038 3832056.551 3629516.804 3502238.139 3629512.213 3649254.664 3908526.591 3476682.99 3912545.794 3357264.179 3540742.501 3592539.602 3917842.87 3177971.863 3471904.297 3281457.299 3540134.718 4307445.866 4596969.568 4048048.636 3852276.335 3164772.344 2358978.159 1874378.219 
2704026.267 3267961.294 4906008.125 5803395.815 6204344.365 5672326.744 5780706.186 5662252.655 6235752.363 6432391.662 5650428.832 6000629.674 6200074.77 6642402.282 5872578.893 6369539.874 5884535.83 5759585.222 5813977.173 5999968.272 7390140.127 5971747.917 6383489.251 6102700.656 5786046.557 6186649.213 6705815.588 6005088.158 6122717.58 6623818.004 6133748.698 6077754.332 5854812.664 5835723.568 5637289.639 6510995.438 5159257.92 4882748.053 4338397.494 2508959.916 
2647394.532 5316700.801 6755826.983 7309774.639 7621693.895 7494056.004 7242430.856 7332168.212 8125714.844 7137694.917 7773717.802 7883439.152 8001061.044 7397100.733 7882003.316 7708668.115 7669325.867 7441319.98 8535723.056 7591764.345 7491280.243 7405898.619 7516722.012 7394270.86 7978616.993 7406981.855 7721275.006 7849904.965 8176644.651 7620511.45 7925403.479 7928954.424 7653870.728 7334921.212 7123593.324 8199462.985 7712379.676 6623376.188 4854736.711 2813626.149 
3330256.205 5534852.729 7838842.752 8646789.324 9588522.279 8762956.617 8508469.195 9056906.184 8596468.786 9437387.255 9001241.414 9506358.235 8883710.323 9162471.006 9195066.609 8711962.637 9472372.642 9306059.136 8468689.115 8759124.389 8797669.489 9599574.285 9682210.386 8595940.524 8761787.811 8723991.704 8801644.678 9469852.034 9274928.448 8119515.697 8155485.366 9389312.564 9278236.275 8676020.101 9218699.961 9391409.622 8591760.186 7802373.222 5258141.094 3597732.884 
3045044.17 6571161.777 7521119.146 8879074.769 9190531.869 9323281.585 9584607.03 9229994.658 9331653.933 9815947.019 9442695.891 9696102.207 9116263.136 9483976.346 9212958.808 9481265.711 9351840.031 9019109.526 9329130.665 9706519.128 9707297.697 8828270.062 10073089.76 9259984.659 9026177.146 9388667.583 9131060.429 9047365.781 8247119.543 9073680.635 9864763.272 10057746.34 9381305.245 9163305.005 9379176.824 9554866.955 9022721.409 7900409.683 5664008.174 3797035.26 
4058913.196 6024537.091 7809014.672 8920059.209 9133522.926 9227886.575 8810380.677 9319465.09 9351622.184 8968237.164 9887862.72 9149578.994 9131191.803 9727805.66 9498418.509 9273067.378 9180448.765 8672216.726 9106841.664 9452414.073 9625707.227 9519019.875 9411158.476 9469638.997 9587384.172 9697596.61 9806402.008 9487379.955 9201699.293 9296216.232 10011485.88 9058954.017 9638475.91 9044000.059 8456905.8 9426470.373 8491568.674 8283899.79 6149522.086 3215648.639 
3592931.971 6374733.604 8078786.4 9155515.902 8966885.77 9162464.886 9254002.091 8836217.524 9027214.417 9415715.396 9233007.734 9177539.253 9610062.437 9606009.334 9881780.075 9530003.656 9381855.318 9187230.106 9062879.091 9221522.764 9039109.235 8830524.859 9298218.635 9195597.911 9547290.06 9189990.661 9759175.727 8920486.856 8548649.51 9115023.492 9905301.192 9470383.311 9045661.917 9542804.904 9141223.191 9009988.474 9434698.2 8209240.462 6293610.051 3079009.077 
3805387.05 5737936.476 7468140.884 9992277.446 8996354.873 9280944.848 9213561.499 9818673.512 9221938.045 9076538.837 9611124.593 9736429.459 9563930.111 9861559.048 8943529.571 9675965.699 9396277.604 9584357.652 8903210.542 9248658.231 8984658.253 8716109.782 8646083.751 9703611.978 8834745.065 9170108.392 9639956.848 8903434.456 9265828.639 9263464.446 9960191.561 9250165.222 9571827.085 8757102.255 9464924.851 9449195.188 9102713.73 7788772.312 5878602.92 3786380.761 
3683411.877 6142475.955 7768436.154 8672923.789 9283606.316 9587820.44 8851351.29 9546810.134 8499507.057 9243748.365 9628427.502 9698354.498 9787559.741 8968359.503 9146281.55 8877320.987 9715040.655 9183151.547 9450956.431 9149105.148 9194581.393 9333261.747 8786173.191 9657830.835 9429935.702 9742735.499 9413357.259 8634438.455 9125365.008 8972983.375 9295255.332 8859223.674 9470500.693 9587815.934 8716327.055 9029461.79 9162487.088 7585665.355 6112225.728 3734179.22 
3758238.58 6432791.832 7710802.022 9099075.018 8840504.049 8866927.681 8896329.633 9205979.937 9778694.074 9062492.908 9381155.813 9731290.891 9129703.237 8970649.46 9573140.495 9644815.539 9439441.157 9546317.796 9556651.736 9065054.116 9346070.082 9189590.682 9739575.82 9056204.837 9469068.222 9561242.975 9366196.917 8681954.683 9539443.377 9695266.307 9207107.437 9631603.67 9291736.353 8564293.176 9526038.202 9535693.876 8808801.93 7230400.854 6079260.908 3786344.147 
3495589.171 6157311.039 7626815.087 8917090.609 9072952.816 10036531.02 9284434.184 9494718.927 9117619.268 9361184.834 9602045.639 8974163.481 9563892.305 9476672.522 9242904.938 9565584.338 9958331.521 9674021.326 9392787.864 8931131.463 9690816.413 9124813.229 9610702.098 9071142.913 9146174.839 9342261.436 9010607.796 9441867.652 8809835.179 8663661.761 9864434.646 9973349.873 9147707.739 9048442.791 9141495.138 9396793.215 9876160.765 8540359.07 6015909.075 3591264.808 
3857650.42 6318697.794 7719443.292 9073530.626 9113653.613 9808407.379 9697409.386 9358838.632 9211901.924 9784929.949 9626256.256 9388643.592 9427946.842 9240393.455 9829889.375 9241631.938 9574010.159 9447810.891 9369766.214 9647329.889 9210665.223 9645959.757 9423223.568 9727534.806 9177930.547 9182551.565 8706632.294 10037983.69 8749914.455 9298448.779 9172548.212 9286656.219 9728743.788 8993288.011 9145653.774 8994072.02 9089377.824 7610559.635 5847024.284 3214859.566 
3688703.891 6051934.752 7523820.722 9652392.143 8887813.386 8525952.063 9129703.523 10128901.32 9722696.54 9319369.007 9451897.006 9438356.076 9467099.184 9959918.519 9449155.737 9453589.544 8660171.794 9401422.755 10289933.53 9187534.526 10044686.07 9329462.899 9594181.025 9442363.748 9366219.113 9683582.49 9395221.371 8906323.696 9230471.673 9536939.249 9605773.237 9562728.589 9032609.542 9195939.788 9364223.804 9400189.055 9284481.319 8020518.193 5849506.143 3400163.251 
3959134.141 5028093.535 7236526.981 9306785.962 8789807.977 9604184.345 9405985.581 9574863.874 9259336.161 9554893.208 9554134.245 9176653.671 9030002.965 9706329.52 9520877.207 9331122.556 9659668.426 8899629.099 9574697.592 8941341.061 10486641.96 9169901.72 9240183.602 9411421.406 9189371.392 9244432.489 9606388.024 9191819.948 9808294.819 9152251.331 9312667.066 8875278.297 9955671.778 8891234.544 9731915.443 8671556.438 8882077.043 7827384.001 6144445.357 4135801.862 
3868552.3 6247281.805 7990257.087 9176919.256 9220398.873 9230008.362 9432686.702 10080852.74 9654418.587 9143403.613 9317862.536 9696432.753 8756466.375 9267948.08 9553238.705 9802191.766 9355387.326 8841867.241 9116036.322 10157897.18 9488905.028 8704032.488 9846803.906 9566590.585 9878590.741 9761965.308 9135199.25 9130954.362 9729041.402 9582618.585 9327530.414 8762769.406 8645273.642 9294619.294 9494361.807 9579656.441 8988622.406 7845571.104 6729429.183 3527138.376 
3167985.16 6302570.344 7478393.29 8960918.57 9697136.021 9443970.312 9198583.442 9025232.266 8871208.243 9659536.458 9436817.275 9474300.095 9039100.897 9334646.887 9558776.874 9599201.59 8953217.436 9657542.018 9324474.062 9761725.677 9866813.476 9628811.396 9634953.775 9917936.88 9117691.615 9144213.731 9805022.969 9922093.207 8981601.336 9349855.844 9796864.357 10167818.16 9341365.407 9188331.311 9533623.878 9187829.279 8991845.959 7570576.88 6119936.83 3416317.506 
2780572.448 6373667.253 7346681.332 9430061.179 9218066.562 9472651.096 9479317.887 8893078.043 8824008.353 9496081.058 8828485.303 9849409.763 9169674.635 8743115.894 8953109.368 9282152.666 8857693.211 9231941.497 9272730.045 9081086.278 10281349.37 9783649.178 8974583.094 9519882.35 9173132.413 9128868.12 9499000.069 9413643.371 9127248.111 9761848.196 8645760.196 9376868.334 9061171.466 9795573.766 9194207.76 9266066.576 9050689.926 8437866.246 5663834.82 3305865.214 
3118857.739 6412526.672 7392212.363 9111036.546 9359146.056 9359778.853 9290285.981 9668895.759 9518300.991 9644564.115 9519223.667 8977571.926 9028677.911 9396253.519 8740135.793 8929587.642 9584181.993 9412594.29 9754892.429 9365118.554 9717590.096 9361338.081 9095857.49 8806934.422 9543870.521 9382374.877 9551730.097 9129021.522 9315831.891 9363178.434 9087812.116 9266354.227 9402122.817 9422806.385 9357879.943 9458971.164 9485916.659 8585467.681 6563510.707 3044889.462 
3631151.168 6350188.879 7867950.743 8622410.522 8869841.391 9590158.478 9488550.819 9701906.318 9074601.381 8886598.252 9860778.431 9650538.786 8945169.796 9257639.747 9406576.125 9867567.666 9345120.598 9502424.287 9971873.621 9763949.536 9449017.961 8612311.701 9297245.175 8870950.142 9110568.924 9474802.557 9357674.522 9184521.135 9768600.596 9654627.224 9651647.773 8655986.444 9284969.272 9459370.774 8814639.617 9155711.424 9007283.816 8255233.372 6135360.362 2746091.299 
3676083.741 6170432.174 8022843.525 9310719.822 9458399.805 9131330.221 9377371.318 8841267.884 10195298.54 9637279.914 9726801.776 9500542.121 10080386.97 8734094.56 9069385.21 8869568.639 9734836.74 9836387.837 9059974.008 9355456.225 9463109.38 9444955.591 9646216.378 9112077.152 9498336.644 9878374.01 8821071.502 9297092.271 8886152.948 8727513.73 9424759.943 9700794.014 9267350.74 9383880.848 8692579.822 9517770.791 9189147.426 7521550.341 5994189.632 3714559.903 
4276036.194 5719929.724 7318857.192 9327438.349 8927842.293 9012751.107 9750994.673 9192272.84 9286948.821 9790512.497 10048061.88 9409645.157 9244630.075 8989557.32 9801502.146 9496513.932 9486448.637 9520818.984 9229881.243 9746247.015 8876376.15 9814654.506 8957408.542 8841460.33 9189480.993 9003337.119 9248044.549 9396618.587 8761094.069 9100084.21 9142535.417 9715393.52 9375563.635 9578122.782 9575463.554 9040804.017 8966561.787 7893910.377 6057738.737 3876817.071 
3565547.738 6464191.263 8265378.178 8902160.162 8830191.921 9489218.82 9587610.182 9052807.177 10033333.83 9258897.531 9084325.022 9117757.075 8857229.11 8931136.61 9813963.053 9002611.849 9493159.932 9404508.779 9592293.406 9020381.9 9377125.064 9766016.513 9543552.787 9250353.59 9369006.913 9959907.962 9361220.298 9218656.051 9408152.181 9508642.321 9185076.222 8365939.648 9361856.723 9763320.561 9664203.519 9289981.898 9085034.004 7792662.139 6406157.376 3277377.1 
2916464.176 5971815.569 8028089.05 9392416.07 9427123.348 9450977.166 9287316.662 9507214.229 9052476.606 9204127.916 9262125.099 9173494.37 9516569.086 9485881.773 8985672.694 9281463.307 9553070.703 9522433.584 8991741.857 8817837.4 9527663.007 9689585.376 8486767.454 9560273.522 9783326.244 9110229.585 9372310.144 9013238.05 9578131.302 9439986.936 9317162.176 9578195.792 9350645.255 9416198.705 9021281.267 9315125.479 9820464.506 7878852.926 5470112.669 3575518.214 
3945850.929 6013403.243 7769643.789 8788696.589 9429229.861 9473916.827 9258579.439 9452212.814 9596655.753 9285099.697 9158618.23 10149945.59 9318026.272 9610775.763 9784907.656 8673915.879 9262949.668 9058974.193 9160789.414 9624970.756 9638007.805 9159622.169 9299021.036 9473383.666 9297767.321 9397136.962 9644933.809 9315188.786 9563359.225 8911236.12 9706146.685 9268788.746 9425684.143 8848747.826 8926981.018 9473467.684 9211820.411 7363233.646 6249069.798 3708872.025 
3635951.665 5470351.254 7738259.375 9116584.356 9361763.967 8856927.471 9154126.27 9435732.845 8959642.763 8632937.311 8891414.005 9635508.696 9120914.368 8967235.164 9089911.534 9499718.442 9301110.731 9359930.353 9397824.972 8774560.075 9498304.109 8795061.002 8737487.906 9443367.104 9100973.703 8973729.289 9683706.99 9868065.777 9287308.32 9145879.354 9701889.483 9592392.239 9185959.179 9851946.878 9953460.227 8929101.313 8939315.289 6860218.932 6038281.489 3593057.148 
3803226.137 5990115.444 7829559.034 8695623.949 9395524.711 9332512.648 10126617.91 9735835.351 9265549.303 8885422.496 9476985.516 9256378.554 9472908.107 9534512.121 8645069.288 9406476.864 9450555.08 9170916.186 8798578.108 9381554.489 9910023.4 9173279.926 9234853.774 9284093.066 9672713.971 9443826.83 9591666.229 9068395.575 9610734.902 9012263.109 9347789.198 9344744.184 10227068.43 9566829.678 9146982.686 9318707.362 9023235.129 8422402.242 6217676.701 4066840.551 
4510990.035 5804200.376 7303728.953 9110225.778 9343019.005 9160062.504 9552636.428 9515978.176 9369662.91 9306301.406 9257374.421 9272395.699 9552058.072 8758698.657 9458657.154 8882993.731 9669163.98 9435072.84 9726572.667 8776280.617 8810478.026 9047800.776 9616873.282 9617110.848 9167812.808 9447093.4 8515329.86 9738933.792 9271438.843 9214966.721 9867795.697 9146639.93 10325202.31 9318536.736 9011950.764 9833229.178 9183984.92 8033588.066 5909124.622 3386591.565 
3435429.944 6005505.218 7861807.964 9170539.545 9156673.275 9552862.481 9441315.869 9588586.767 9039791.765 9268812.612 8973777.772 9337156.704 9240004.258 8845290.113 9755537.992 9643228.919 9581953.391 9118217.726 9346615.609 9036658.116 9294393.336 8848869.395 8808161.081 9200396.94 9531130.47 9532680.892 9395774.005 9055358.804 9668875.483 8708312.705 9293492.5 9435363.405 9158220.297 9410805.969 8860084.842 9093611.202 8973274.438 7652133.495 5673375.521 3348025.533 
3707846.13 5725028.128 8093167.011 8386778.92 9249990.803 9808143.38 9289311.389 9517409.898 9005983.125 9133219.079 9610590.71 8729350.143 9531597.478 9315618.909 9304554.461 9532827.023 9645580.619 9280049.298 9634519.896 9448997.998 9972104.568 9590115.801 9930963.374 9332053.483 9788506.668 8182054.396 9235518.177 9520741.861 9674007.051 9078889.093 9632179.059 8714082.491 9821225.665 9317088.007 9079254.961 9224309.397 9464509.479 7581693.908 5994465.767 3189375.581 
3638642.118 6122903.494 7067493.931 9181021.275 9300983.434 9655675.77 9259569.874 9096489.572 9733855.049 9653562.579 9583233.287 9547379.734 9115456.625 9206382.063 9048137.353 9118359.233 9644146.512 9489626.923 9648658.27 9588173.599 9132309.31 8753314.154 8209943.826 8918767.542 8798894.789 8862312.957 10012348.42 8972918.385 9085928.22 9835359 9474006.731 9539384.694 8882265.411 9162492.8 8652378.462 9031970.234 9063764.713 7644249.436 6667808.904 3384799.256 
3263858.234 6056003.855 8393674.372 8608958.7 8846587.057 8877864.443 8991550.589 9531079.27 9289205.844 9305343.258 8961846.609 9045840.633 9750690.596 9320788.392 9305667.888 9214175.704 8793891.805 9930248.127 9171778.962 9324411.63 9485256.175 9010131.03 9222054.951 9864452.099 9180841.908 9252449.722 9404831.987 9245785.137 9059190.919 8627084.143 9557269.55 9571912.783 9706815.832 9337262.44 9410788.454 9346606.608 9183708.54 7517031.221 5524876.986 3972503.282 
3644843.179 5501245.131 8406373.856 9565554.663 9162232.408 9389687.801 9547997.279 9612449.479 9593747.284 9333686.5 9191820.821 9270851.734 9689801.781 9570958.867 10091881.97 9093574.136 9484520.991 9925085.325 9975001.722 9222223.998 9179397.327 9266171.711 8794762.53 9350582.808 10097476.41 9350951.347 9276890.606 9021638.927 8643559.028 9196402.919 8844531.189 9425948.243 9007618.876 9665349.076 9430318.175 9521307.718 8930603.041 7956508.578 6190455.314 3514881.892 
3558856.801 5862501.071 8149441.227 9075814.511 8353821.519 8657594.934 9497415.365 8963218.451 9339854.564 9446599.758 9624418.097 9631487.061 9407341.894 9614912.347 9161438.655 8896012.502 9063150.132 9232046.521 9053133.656 9987496.789 9050028.472 9425619.318 9216420.789 9861418.403 8999079.707 10070508.4 9298160.447 9380491.85 9060804.423 9373284.786 9870461.658 8968230.341 9327297.733 9340834.39 8833841.639 9476823.001 8719167.588 7725164.724 6524760.187 3351493.177 
3648053.249 6176932.146 7559440.014 9126296.322 9661467.122 9161248.63 9465986.36 8770560.741 8583434.566 9276616.171 9098171.996 9252886.924 9404932.827 9346040.726 9844414.124 9164336.821 9364493.113 9568458.562 9591488.046 9977787.764 9640779.609 9129819.713 9192917.88 8600312.415 9385636.529 9585757.456 9202406.075 9420725.564 9110730.175 9541185.259 9355096.895 9394332.85 9534440.296 9061814.54 9738095.813 9405429.803 8701635.488 7340429.073 6380956.855 3613761.02 
3184863.985 5545979.923 7926444.378 9463963.021 9423989.573 9909690.175 8728571.052 8925474.05 9468349.709 9439095.627 9471587.58 9121222.342 9093485.224 9252169.186 9019412.99 9231823.793 9258463.599 9413061.679 9829369.485 9407486.789 9566565.065 9764141.764 9239588.008 9850949.679 9724995.908 9330319.702 9805938.504 9908206.864 9549056.827 8799077.547 9594666.099 8998085.413 9311404.835 9769052.658 9758948.469 9302052.64 8797134.438 7780066.173 6089604.673 4246970.323 
3102850.783 6147405.263 7163076.563 9339448.637 9727358.884 9730120.255 9317740.788 9974889.423 9397789.987 9283880.62 9412131.583 9343114.276 9256547.463 9564658.297 9295869.158 9599679.545 9512629.56 9469084.601 8954024.076 9587916.833 9500113.601 9488767.572 9378787.28 9103301.742 8996295.048 9222032.306 9300948.98 9152784.522 8916372.191 9093143.861 8870915.435 9684470.605 8517159.84 9180132.137 9348827.129 9097875.882 10023647.35 7361986.967 5076434.864 2832460.354 
4122328.675 5684286.27 7609333.144 9317870.02 9412379.584 9161362.319 8904115.846 9571688.513 9066743.708 9044024.13 9681700.886 8363866.754 9092906.045 9326744.647 9176871.292 8732570.229 8468481.596 9336824.26 8755190.379 9322574.678 9089440.545 9186227.04 8645068.063 8478752.42 8917082.148 9550093.695 9239779.975 8715008.219 9389246.354 8946134.051 8886224.806 9384126.758 8998701.594 8535486.313 8839519.02 8839851.982 9228080.674 7420625.006 5779039.013 3101362.97 
2873010 4455371.244 6901981.478 7702606.599 7362881.623 7911387.505 8032609.383 8254901.579 7954720.612 7532272.585 8109960.181 7809629.939 7978408.008 8145177.238 7847153.583 8176320.537 7518564.306 7849496.725 8702602.124 8139161.743 7717208.859 7649976.591 7864279.171 7361593.607 6955930.815 7595010.562 7321037.309 7296510.543 8251142.248 7853861.947 7626688.424 7520081.019 7775663.196 7253678.742 7587057.005 7292958.988 8233413.096 6355230.232 5322539.349 2321212.546 
2451308.639 3899184.03 5265493.065 5722342.464 6068160.966 5674857.545 6370483.127 5597617.338 5602413.168 5820035.391 5515252.274 5434071.286 6114829.105 6320485.843 5629574.598 6347225.851 6364100.059 6341945.627 5854306.414 5802513.953 6354075.822 6473413.894 5835973.272 6335550.028 5649627.917 6159326.434 5749486.636 6008741.651 6334644.872 5979527.372 5371070.56 5865135.858 5524860.048 5462956.683 5763869.903 6445607.443 5388296.601 5245119.046 4298917.883 2623715.278 
1607342.252 1995657.06 1976153.502 3930176.715 4098319.003 3507454.401 3843137.216 3816232.32 3729326.078 3437000.36 3344378.611 3839549.433 3661284.207 3719380.376 3417773.269 3685885.785 3069458.627 3226861.185 3183103.762 3069852.186 3503373.247 3305477.07 4028308.949 3194748.523 3655683.24 3501724.238 3835614.625 4030492.05 3167148.583 2966533.35 4025093.074 3259217.844 3835297.129 3677540.087 3947579.709 3615664.023 3628471.569 2530052.105 2167977.418 1188486.471 
# Events [m3/m3_1570866817.hd_vd] N:
15 52 89 120 135 126 120 117 133 108 118 106 121 99 112 113 99 119 106 109 119 107 105 105 110 118 109 122 128 97 120 111 106 118 120 104 106 83 52 20 
45 121 225 307 307 325 339 323 343 333 311 323 314 328 315 324 297 324 327 329 354 318 331 327 338 332 339 333 315 340 341 306 306 323 299 316 277 232 164 65 
73 221 381 496 515 535 518 518 572 504 526 523 527 503 541 523 533 535 556 505 479 508 528 552 538 503 507 540 531 542 537 531 511 510 501 556 492 380 210 75 
99 289 494 670 742 733 640 736 702 758 725 750 684 745 753 750 712 722 719 735 714 752 745 699 685 680 678 726 735 706 703 691 767 795 723 712 676 543 270 103 
98 360 517 724 788 778 776 739 736 799 752 802 748 776 769 754 755 755 733 772 752 759 786 720 710 771 768 736 773 754 778 795 749 764 802 793 696 519 310 119 
102 310 523 696 761 777 728 765 763 736 817 744 718 699 786 731 768 706 735 781 788 761 785 752 757 783 755 759 700 756 793 749 827 754 720 803 728 572 313 110 
107 352 552 714 748 765 725 704 692 752 785 767 754 748 779 768 779 773 753 742 733 752 747 743 786 733 760 743 704 744 772 732 762 732 789 768 718 533 312 101 
119 338 554 725 762 793 773 775 733 695 802 795 752 769 689 814 775 769 738 766 744 737 728 722 739 763 786 718 706 726 822 755 706 734 762 733 703 531 286 113 
120 320 518 683 766 782 712 766 698 728 764 773 778 746 794 741 780 785 750 726 710 743 725 784 728 774 759 725 768 720 773 695 722 765 703 739 711 512 335 114 
117 309 510 693 747 673 736 715 762 745 764 795 714 734 744 780 747 747 807 754 736 776 754 773 767 764 758 698 770 806 767 777 751 691 747 786 686 522 310 103 
98 342 552 710 743 780 743 740 734 733 765 751 791 727 760 812 811 774 743 712 756 741 783 727 742 785 743 708 711 739 793 807 769 707 772 783 785 558 324 119 
119 311 489 755 738 760 754 715 712 801 782 792 744 732 778 742 787 709 730 773 769 772 723 750 773 768 755 751 712 772 710 749 774 736 767 727 702 523 320 95 
100 315 490 749 743 704 728 791 750 773 741 752 763 760 829 764 728 791 831 727 769 784 780 727 751 762 716 704 759 769 755 771 777 739 771 754 741 536 332 100 
106 282 499 765 743 776 752 756 752 755 748 752 789 786 797 726 752 748 739 703 777 745 721 750 754 759 736 697 795 764 759 735 787 709 773 728 698 507 330 121 
122 311 559 734 757 721 755 781 741 746 745 756 696 730 716 741 758 693 756 809 707 744 781 777 765 756 766 737 739 768 758 703 767 748 770 713 678 540 335 103 
108 319 542 718 785 775 757 752 752 780 780 791 751 728 760 773 726 757 705 807 767 821 768 762 745 735 813 788 757 724 796 787 776 730 757 747 687 547 324 124 
107 311 501 720 776 721 828 703 722 781 758 785 765 751 746 716 703 761 753 720 805 780 714 803 756 742 789 767 762 797 783 759 732 808 751 755 699 532 316 109 
88 350 496 755 740 736 739 732 737 757 768 718 761 749 769 759 783 769 764 781 764 749 668 753 735 782 761 728 708 761 732 791 767 770 760 729 729 553 376 96 
109 310 597 707 757 745 780 770 794 750 771 714 733 773 741 783 748 758 788 789 757 712 760 741 769 720 759 743 777 798 767 723 736 741 724 706 695 545 291 95 
110 326 530 740 759 761 767 744 802 775 807 758 781 696 748 759 780 767 751 761 718 762 770 734 743 737 729 742 747 709 752 762 719 740 707 759 719 549 323 118 
129 306 533 707 749 731 770 757 724 752 779 747 732 734 739 737 754 730 697 739 704 710 711 753 716 739 712 749 747 755 746 754 754 784 745 765 696 512 308 128 
117 309 546 767 704 779 755 779 793 758 750 761 728 734 758 777 802 744 736 745 773 719 762 792 790 793 773 733 747 748 747 739 738 748 725 764 709 510 335 96 
106 289 514 766 761 767 734 798 793 743 763 767 762 725 713 727 786 724 712 729 798 738 733 738 745 710 749 743 751 756 711 751 725 761 720 732 773 547 316 126 
112 312 529 696 768 738 752 758 757 748 735 863 719 742 771 727 737 776 732 765 752 731 779 737 736 745 747 765 766 693 768 751 741 736 745 737 768 500 300 120 
116 294 527 689 786 737 728 764 748 728 757 756 740 714 738 793 744 770 733 708 771 718 700 757 762 781 772 751 797 795 759 787 753 689 783 725 716 508 310 103 
113 322 518 704 716 754 825 740 749 771 728 749 744 746 732 780 752 715 777 740 781 686 784 762 729 767 752 716 757 700 776 747 799 764 770 706 679 548 313 121 
132 318 533 706 781 762 751 766 745 748 736 785 763 753 762 755 771 758 752 781 712 696 735 754 740 720 742 785 732 784 773 767 818 743 725 765 694 550 303 103 
100 296 520 698 739 749 780 774 749 745 708 721 733 741 739 779 781 744 738 748 777 720 754 720 798 793 764 710 725 740 741 850 765 754 728 729 697 539 299 113 
122 294 516 679 714 795 794 761 726 724 717 748 769 756 727 759 749 746 804 746 813 736 766 764 800 684 790 745 765 726 739 712 763 800 735 781 678 545 326 97 
112 317 517 739 772 832 767 766 791 751 824 742 755 736 772 721 776 769 767 721 748 749 723 732 745 758 795 732 753 746 780 769 741 752 706 719 684 507 360 108 
113 321 516 719 738 741 733 759 718 746 764 716 803 752 779 744 736 780 733 740 826 723 724 818 716 737 766 698 749 724 789 776 755 720 750 730 738 523 298 121 
109 308 551 724 771 754 752 783 794 783 765 759 735 779 778 752 786 781 735 744 769 782 733 759 733 775 716 749 739 779 789 766 760 772 758 798 743 556 309 111 
113 307 544 720 713 779 759 760 764 783 753 729 789 718 744 722 755 748 754 815 762 801 691 777 702 784 782 737 735 722 755 734 743 751 742 739 706 559 337 104 
115 319 504 724 770 769 713 720 701 762 698 756 733 771 759 738 740 765 776 752 740 721 707 735 772 784 697 771 730 770 780 771 727 782 759 722 685 496 324 116 
103 323 539 713 771 810 726 765 724 740 766 732 766 720 781 764 734 724 803 747 752 746 763 745 744 758 789 745 734 734 753 724 838 739 777 717 695 578 318 120 
91 360 459 756 797 797 732 797 755 741 768 786 780 767 826 767 742 749 752 795 749 758 749 781 754 738 761 728 720 717 763 781 688 763 782 758 765 499 280 80 
127 281 464 651 746 706 694 773 732 695 734 647 701 719 714 672 673 738 721 725 731 687 714 677 687 697 728 660 698 727 707 689 733 684 714 710 687 494 288 110 
73 228 374 508 504 522 571 515 529 485 504 529 554 516 518 513 475 539 555 534 557 539 496 491 504 491 510 497 545 493 462 544 526 497 496 492 533 383 242 73 
36 142 209 271 326 330 321 313 260 309 290 285 330 343 282 353 352 329 329 290 355 352 323 329 270 325 299 300 318 324 306 297 314 285 306 317 283 204 154 56 
18 48 56 101 123 124 108 124 114 121 110 111 97 107 105 109 101 100 108 88 94 114 106 121 105 106 115 115 100 96 107 120 102 121 117 100 98 72 51 9 
