# Format: McCode with text headers
# URL: http://www.mccode.org
# Creator: McStas 2.5 - Nov. 19, 2019
# Instrument: /zhome/89/0/38697/TESTS/2019-11-20/McStas-2.5_CPU_MPICC/Test_Sources/Test_Sources.instr
# Ncount: 1000000
# Trace: no
# Gravitation: no
# Seed: 1574209597
# Directory: 5
# Nodes: 10
# Param: source=5
# Param: Lmin=1
# Param: Lmax=11
# Date: Wed Nov 20 01:18:33 2019 (1574209113)
# type: array_2d(40, 40)
# Source: Test_Sources (/zhome/89/0/38697/TESTS/2019-11-20/McStas-2.5_CPU_MPICC/Test_Sources/Test_Sources.instr)
# component: m2
# position: 0 0 1
# title:  Intensity Position Position Monitor (Square) per bin
# Ncount: 10000000
# filename: m2_1574209111.x_y
# statistics: X0=-7.35575e-06; dX=0.0288395; Y0=2.5623e-06; dY=0.0288318;
# signal: Min=1.42934e+08; Max=1.59392e+08; Mean=1.51344e+08;
# values: 2.42151e+11 1.07578e+08 9.99968e+06
# xvar: x
# yvar: y
# xlabel: x [m]
# ylabel: y [m]
# zvar: I
# zlabel: Signal per bin
# xylimits: -0.049999 0.049999 -0.0499981 0.049999
# variables: I I_err N
# Data [m2/m2_1574209111.x_y] I:
143480739.7 157771542.9 147725517.5 149348374.3 150159699.4 153127205.9 149141047.6 150482999.1 153942035.9 146481268.6 149781859.3 150131754.7 151744128.7 151853992.1 153705752.5 148048412.2 147451997.2 147439397.7 146391648.2 150369267.7 154587058.2 145408800.5 150870979.7 149158896.7 149778317.9 152594450.3 153999961.5 145369759.4 148903910.5 150977243.8 149969375.8 150229161.2 148362124.6 151097944 150493815.1 149436303.2 149081718.5 149443460.1 151413376.4 148997521.9 
150657947.7 146547542.5 151284451.7 149303793.8 149375776.1 153258975.7 143347580.3 156129284.4 150205475.4 153089427.4 147581156.3 150888696.1 152489151.7 150345676.9 153686603 150459072.8 153913170.4 148604752.3 148010330.7 148274321.3 151284262.1 150847069.9 152512375.2 152043997.4 151745233.3 153309073.4 148497439 146657683 156391434.1 150371970.7 149110780.5 153707671.8 149444534.2 150344467.9 151610058.6 145080598.6 147560790 151985674.7 153560445.6 152177228 
148401834.6 153169199.2 151970788.4 149708772.8 152171700.2 150198133.5 146461681.3 148243589.7 151658715.3 149097559.2 151256625.9 152688463.2 147307304.1 154974968.4 150398651.5 150665691.2 155784299.8 151759280.3 153599209.3 154902963.5 152263587.2 152746319.8 153164732.8 148512763.7 150074612.2 152075915.9 147697901.6 144940919.6 148716680 150095975.9 150974226.2 155876486.5 149781502.5 153308895.3 151371629.5 149029123.5 154389277.7 150017249.9 153557267.8 148784381.7 
144827981.9 147474441.3 150700735.8 153679751.8 153349056.9 150053184.9 155219113.5 152531410.5 152376668.4 147125103.7 154350694.2 154394461.5 153101237.9 153211950.6 150079920.4 150580903.8 148405234.3 150230009.4 153079228.4 149256213.7 150023758 154305440.7 149805432.9 145546314.8 151780808.4 152840878.7 150979204.6 147678346.8 151708294.2 155152316.9 150293660 150726906.1 148373826.7 151923315.5 151831711 153029693.2 147998013.7 150099994.9 151426760.2 152521595.1 
151991040.3 151509632.1 148094165.7 154186766.3 150470569.9 149895502.4 155319098.9 149095542.6 153263543.4 150480534.1 148979511.6 147886233.2 151452616.6 155806861.5 153913083.9 156427316.2 151780065.2 150656313.3 152321196.9 147897560.6 154508287.6 152681235.8 149302851.5 151111864 148723085 150275992.8 158634769.8 151703201.4 153445263.6 143143362.2 152168132.6 152900181.6 153528881.4 151148978.3 149318146.7 148902863 150955988.7 150773412.4 156331299.6 155015790.9 
155637808.7 151803095.2 144673683.4 150175586.2 147023436.4 155935800.7 153799608.2 151715972.8 150309882.6 149875323.9 147150727.6 146677119.8 150256650.3 150415363.1 154215931.9 152471760.9 151610754.8 151070170.1 148693359.8 153239225.8 149674551.4 147317271.7 153450717.6 148724275.6 145818685.3 156249527.6 146031396.9 152074589.4 153241356.9 150273981.3 147874893.7 151352217.1 148946284.1 147094221.8 145957055.9 152757786.6 148128191.2 146618302 150547213.5 151860320.2 
144617375.2 152254128.4 154921471.7 156018183.5 147569121.1 152177138.3 152624871.8 152580207.9 154699102.9 155067852.8 152786780.5 152639459.7 150442266.2 149793131.6 154344078.4 150833042.3 151862729.9 152152680.2 154668607.4 154811555 156115660.6 155830377.2 156312570.5 148200139.9 154777638.2 152792105.4 149961897.1 151083512.6 151096939.8 147157203.1 153620194.1 152464759.7 153922008.1 150987311 155906816.3 148455940.7 147536100.8 151014664.8 146466786.6 147349435.3 
149173634.3 153633379.9 149789258.7 144636815.2 148734606.3 148855590.5 154889628.3 148844809.8 153223161.2 156249881.3 151419471.4 157343558.1 151294982.3 156765896.4 152471343.8 151651026.4 153246634.6 150665532.2 151864464.1 148822022.7 154505569.8 145806473.8 155636437.8 151721229.5 152347891.1 151089340.9 147954159 151894954.3 152319195.6 153683270.4 153866648.7 153024917.1 152416944.2 149834131.1 153504002.7 150163693.5 151676232.9 143681960.8 154618656.4 149451263.8 
156146736.5 152984742.6 152107472.3 152668500.5 151385721.7 151237549 149901128.6 151737412.6 154136150.4 149537017.4 149610319.2 155473435.7 155795707.5 151300006.1 149403432.6 149402877.9 153010604.6 151914024.1 153786519.1 154746678 147586230.8 151474438.5 151741061.6 147315867.6 148362412.6 152157037.9 152313548.4 152355497.6 149790365.9 153438224.1 148486309.1 149901139.6 147937459.8 146633002.8 154514549.3 150324661.3 151884234.8 151016856.5 149555595.1 150732980.9 
154682321.7 150701951.2 151283162 149398276.3 155996602.3 152901974.6 151651974.8 147709063.7 151769572 151638776.5 149341712.1 153919648 155353648.1 154284559.9 153870208.4 147368948 149237570.4 155673020.4 149350103.2 144028989 150929970.8 155181439.9 147440728 153891297.7 153393278.3 149411133 152211891.3 151183271.2 154001810.3 155001598.5 154201048.3 144267088.9 153125780.1 152453068.1 149053054.3 152754632.2 155832810.8 153188697.8 147890178.3 152087212.6 
148892681.9 149681448 156472911.9 151608631.5 151854594.1 153162376.2 152683148 146775503.1 151065656.5 151594692.2 150655371.6 152526167.6 149355348.5 150258948.2 154392262.7 151191935 150938868.5 154227549.6 154819326.4 153384226.1 147711749.4 148650402.7 151856195.8 155466470.9 150552001.8 147275434.6 152495092.2 152309105.7 153439638.4 148034658.7 152182145.3 153377810.6 149651344.4 150928727.1 151900478.2 150977306.8 154705765.9 151557521.1 146061608.6 144815801.9 
147727511.9 149611828.2 152669996.1 147517991.1 152696257.9 148541572.2 148225342 153307385.6 152258596.3 152040671.7 149724076.6 150475946.4 153024739.4 151981666 148975778.4 153212709.7 147153670.7 154478234.4 148501763.5 155078288 155038101.7 156206770.3 155383306.3 151218203.1 150854203.8 148660622.2 151380374 154713530.2 152389812 147624913.7 150143712 149847666 150843013.1 153484744 149798621.9 151027512.3 153744974.8 150881220 152488212.8 148614742.7 
152472902.2 147332198 151936879.6 151700321.8 150111252.5 148326663.3 149898921.3 151498371.2 148830641.7 157903080.3 151139444.6 151760278.3 148368880.5 150789941.6 150672161.5 155563838 148095607.3 155528250.5 149865332.2 152394746.8 152739442.8 150947991.7 143783510.3 146865724 154436949.4 153272331.7 152830877.9 154182413.5 148436629.1 147447036.5 152766305.2 152337301.3 156251316.5 155093918.9 154649146.2 151777912.8 151448594.1 150097218.9 153382756 152618699 
154177984.6 153956756.5 152995674.4 147106841.8 147780458.3 148368675.9 149248923.8 151126819.7 145164532.3 152839885 149460068.6 149695136.3 153252929 150151299.9 155058498.1 151970403.8 149002319 153166886 151118699.4 151561105.9 150843590.2 149899465.7 154980913.1 156222371.8 153528601.8 150378834 156892659.8 157136983.8 151830518 154233080.7 152077117.1 150381821.5 150842187.3 152800658.5 155423900.5 151869088.5 154469790.3 153701136.3 151274455.7 153883059.7 
152496155.7 151486209.6 152145714.1 153720192.9 155382947 153539763.6 150736991.5 151610624.3 150600655.4 153195757.8 150122190.6 155669565.9 149303110.1 155326146.7 149572796.1 150034820.5 154263911.4 150179736.7 154485462.8 152685097.3 152177758.6 153068115.4 148072196.4 152841439.6 156045774.4 150086346.9 145041253.9 155169183.1 149792916.1 154550646.8 153028202.9 150550177.3 149962192.6 150218617.6 154172084.7 152057276.9 148980525.4 151621395.3 152841014.8 150678774.4 
149711793.8 150647628.3 154760196.2 151660320.6 149955648.2 149931285.8 147044402.1 152828828.1 154484635.5 156055210 152769461.2 149668016.4 150455541.5 150664799.9 150577835.9 148123912.5 151796708.1 150321860.2 154056469 153691994.9 154245961 149514435 153569666.1 151017319 150698681.8 151009045.2 149724248.3 151192717.1 151471743.3 153391940 147385750.4 151951324 157239640.3 148873446.9 153244398.7 153524550.6 153773464.2 155701583 147667583.6 151266282.8 
153869871.9 147757064.6 149950836.3 150773374.5 152334984.2 148338720.8 150873893.8 149194229.6 153178935.8 151587902 148406013.6 155262210.7 152914451.2 151992594 154516212.1 150108473.5 152015029.7 153296468.4 153919979.8 151327289.9 154592097.6 150040998.2 152215283 150366556.8 152907918.7 150753980.3 148071394.9 150816732 154474622.2 150795676.6 151570869.4 150681700.4 148666423.2 153687848.3 147413309.3 151670674.8 151800431.3 155762967.8 149143529.8 146983903.5 
148221165 148924048.2 154309098.5 152981087 144957077.7 153487918.9 155555250.7 152238935 148539909.5 153185832.7 153758010.4 158625976.2 151642305.7 150018247.4 155158882.1 152470547.5 148789995 150408842.9 148346067.9 153069259.6 156950270.7 149923736.4 148330241.8 151142962.3 152993937.6 150536257.5 154593845.8 154068181.6 154594172 151115601.2 147926765.8 148751709.5 150107464.3 153895987.8 149568239.4 149522426.6 159229536.7 150558836.3 150643481.9 150823402.8 
156379493 154704547.8 149197079 155667186.3 151834695.3 155699393.2 152834969.7 149461614.9 152386333.2 152421127.8 155354875.7 154793285.1 150115337.5 153095295.8 148807551.2 150903028.7 147272519.8 153479815.8 148385372.6 152839430.3 148571865.7 153680750.5 153889297.6 150478044.1 150523255.9 150372507.4 150562553.6 149138901.3 151129598.7 147542372.1 151118624.4 151276698.6 152455888.4 150297636.3 151826188.9 151321762.1 150735778.2 151713654.9 153627845.8 149681233.5 
153260824.5 149098299.8 153123641.9 147768086.6 155772600.9 147466813.1 151875275.5 150487755.9 151198558.7 153048184.3 148196215.7 154312532.5 149819237.8 152689949.8 148167765.8 149111922.2 147161582.9 153182486.7 154342300.1 152427659.2 153406535.1 156954336.4 150561311.3 149545887.7 147946069.3 155364559.8 155326433.7 149303582.9 157943939 151624334.1 149175764 153010034.6 150676804.5 153138257.9 153154436.6 149727920.1 153040324.5 149447872.5 150105915 150748548.1 
148203152.6 156901117 150389246 150234062.7 151933898.9 153764530.1 148801341.9 156019380.5 155945624.8 150213475.1 152241664.8 151153558.5 148210348.4 152980936.2 148888384.8 150940369.9 152121604.1 151036136.2 156059491.5 147253452.1 150564158.6 150611120.2 153318474 156183362.9 158305446.9 153035814.6 152446562.8 151205164.1 152909316.6 152892369.2 154837766.3 152292994.7 155225106.6 153883434 150641727.2 155288381.6 151549184.8 155159011.5 149786387.3 150646030.8 
147539044.4 152149565.8 152578881.9 152261944.8 151651441.5 152825034.2 154607295.4 151758633.2 151028088.6 152712157.4 152224400.1 153014456.1 152237181.8 149213545.2 150787043.4 150631501.6 151737841.5 153241318.7 152489614.5 154443464.4 152181250.9 155651722.9 147837398 153131532.8 148747170.9 152202904.6 155501677 149593856.4 150867235.3 153035862.6 150806739.4 146729777.3 151045441.6 157628251.5 153133236.3 148341542.6 150439551.3 149240089.4 157121684 156785102.5 
148167353.3 147849321.1 152485592.7 155346527.2 153913614.1 153364883.1 152012660.9 150684219.9 144946606.6 153366494.3 148143568.7 153401407.2 154783705.9 147337294.7 153674447.1 146915745.2 148349559.6 151187984.4 153352795.6 153617827.2 153830695.3 151567713.5 151962606.6 149775476 147484744 154996002.4 153637815.8 147773759 151284475.2 152691941 147311440 146526163.3 152697156.6 147142685 152189599 154053880.8 145150288.6 158264819.5 152671500.5 149850615.6 
149275888.1 151231341.3 149391480.4 151262354.4 149183832.2 146904631.4 156098971.2 153421933.6 151351926.6 155875557.1 150240338.2 148463823.2 150938950.2 154679277.2 148162853.9 151232668.4 151377699 155538300 153740293.7 154048780.3 151862415.4 149377776.3 152326799.2 151889376.5 153342902.1 152477181.9 149151436.1 150397112.3 152042294.4 152243068 146644362.8 147669817.2 151198090.6 153015793 157417374.3 152763376 147537313.4 152393045.5 147430043.3 153044584.8 
151564824.1 147027659.9 149853453.2 148811809.8 150556833.1 151368714.1 147134124.8 147184273.3 149647579.9 149329362.1 151571135.2 150080525.2 148732924.1 154116693.7 154329208.1 153307197.5 154422328.9 149910288.9 151650074.8 150110257 147346753.8 150771643.2 154082817.9 150404802.8 149768229.4 154800534.4 150875456.1 144721334.8 154745105.4 154818429.9 152101633 152974141.5 150770297.7 149405756.6 151734072.8 152972385.7 150118070.4 151259774.4 149553746.5 145067640.7 
152547523 152665902.5 152648032 149604780.2 153090551.1 151768916.2 149310939.1 152487254.5 155110266.4 148663187.4 155017100.8 155073704.5 152554568 154836327.7 151466784.6 154556044.3 147973294.4 155760498.5 155768925.2 156632899.7 153612490.6 151672513.9 152957348.7 149540091.5 149875658.2 151454178 151377964 150205325.8 153896428.4 150588090.2 152068345.5 147341882.3 150523672.5 149607434.7 145515603.7 153957248 152519628.6 153595324.5 152757881.3 153305720.6 
153733751.5 152050789.3 154712941.9 154105103 154267787.1 154653207.6 152079741.6 150549078.6 151487215.8 146267326.4 154427881.8 151456095 152429907.1 154478674.3 153240822.7 152981641.8 153176894 153839813.8 152391332.9 154291577.2 148132601 149678681.7 153438809.9 149858435.7 150729805.5 148540030 149572599.9 150246122.2 151273132 152418710.2 153287394.8 153825572.6 159259127.8 151865197.3 149256180.7 150954512.3 148168503.3 148419104.5 150888943.6 150007343.4 
152718195.8 154337112.9 148956365 151443076.4 145997047.7 151501206.7 151197867.5 149074663.1 151364198.6 150339457.2 150251734.7 150346219.3 154312154.3 159036633.2 155980403.4 147307624.3 155850655.7 150625017.2 152754829.7 152768908.4 147204506.7 152278375.6 152041970.9 149787699.2 149133361 153921380.3 145427987.3 150762677.6 148260864 151419021.3 150115810.3 152494751.1 146938157.6 153162347 149842764.2 149797209.6 151028105.8 151462919.1 149079753.2 152934805.2 
151850776.2 156895299.1 149502501.4 151540542.2 150913415.6 155922289.8 149319837 151623122.6 156471313.3 148397118.3 150702172.7 150758032.7 146956169.9 153080450.1 148028868.1 147455541.8 153969762.5 150160409.4 151372549.3 151611221.3 148752619.3 155524748.2 153335002.6 150560988.6 151271935.8 146573261.7 154293973.8 148984818.5 155585286.2 146702707.2 151484075.8 156236895 152432809.6 150725160 150041134.3 154038713.8 148871051.2 156076162.4 154395127.5 149972752.5 
148104045.3 152104768.5 152450575.9 151388793.9 152235167.9 145289383.2 152187719.7 154619244.2 149582667.4 150879724.4 146770222.6 151310259.1 156044971.2 154070436.8 149879363.2 150364082.4 150171473.4 153787655.2 147981406.6 151755369.4 150360463.1 154413715.1 151721463.6 151850446.6 150334080.1 150571088.9 148794833.3 150905614.4 152523810.2 153229316 150658454 152010611.3 153017144.1 148006324.3 148987175.2 148625733.9 151859644.6 147889353.5 142933915.8 151848575.4 
150816647.1 155848700.4 151801236.8 152679812.1 148946481.9 143419726.2 151287819.6 148442725.4 152365005.6 149449365.8 152939513 149066291.9 152788941 149409415.6 153753164.9 153084967.1 153020908.7 152206576.8 152020879.5 149382391.5 154798273.3 149733478.2 152491869.9 148404357.5 150905731.8 149878659.7 151863407.4 154285778.4 150945033.4 148449404.3 155040100.9 149089494.1 149202876.7 149669258.3 146867466.7 148739325.9 149324999.8 147450038.2 150593116.1 150726430.2 
146977910.9 151381028.7 155057035.1 150693967.8 149349999.9 148034907.7 157063288.1 152979088 151455098.8 151240008.9 153269703.6 154494013.5 149775461.4 148562025.4 150177632.1 151682506.6 150484048.1 149353267.5 152433151.6 154052281.4 152369055 153638123.3 153144827.5 156373555.9 154306036.8 151746646.2 152053716.8 148816334.7 149362076.4 154313249.5 155311670.7 150390352 154296684.6 148419174.7 154978862.5 153331452 151533118.1 153641149.9 148614685.9 154177654.8 
149789949.1 146897454.5 152640274.6 156977265 145611608.9 148057471.5 150911138.7 150404553.1 150091354.5 153109601.6 155155133.9 153153825.3 151150747.7 153586607.7 147654512.1 151460537.7 154927950 151185592.1 152605790.6 151307702.6 155976670.2 154592133.1 149753974.4 150934599.7 152665505.1 152447763.4 152572606.2 148074712.1 151270082.2 150102678.7 149765078.1 153882906.4 149062091.3 151254555 155704892.6 152067826 153721792.4 156377079.9 146418578.8 151465180.7 
147003950.9 148427045 148004442.7 152072586 159325016 147255828.4 153183895.7 151370244.1 152254529.3 148739630.7 149444082.8 150404479.3 152028868.4 148809438.9 149145297.7 145881394.6 152109896 154437515.2 155450995.8 150456784.1 152840867.9 154418940 152334826.6 156082362.7 147707623 149708079.2 153218246.8 150154436.8 151708878.2 149563522 151732268.9 149907063.2 152530496.9 152323945.9 154253346.3 147978965.1 150377472.3 148305435.5 150165596.5 153491939.3 
145182048.9 152125834.3 152880901.5 151635322.8 152582912.4 153040187.4 147976574.1 154055471 149978991.5 150854612.2 153753802.6 150079620.4 152799343.8 149757881.7 150194067.6 147270521.8 155256888.4 151878169 154109752.1 151419700.6 151317268.3 153674652.5 154398734.2 149818360.1 158470963.8 147469098 148990098.4 147855667.3 154276887.7 150735521.2 153510630.4 151678647.1 155566126 149318324.6 148704345.4 155902627.6 150318644.3 155111252.2 153948985.7 149305795 
149527900.8 150807979.1 150941599.4 152653930 154865253.6 151557089.3 150348573.6 152301582 150658082 149461216.1 152645347.1 150539685.6 146963029.4 151633505.2 152781507 151805639.2 151127757.5 148769592 152271051.4 152347290.1 151965162.9 154520057.3 149550232.9 150150323.9 147614929.6 148354856.9 149731074.5 148575472.4 154066978.1 151911966 150826950.2 148448267.1 148104893.8 149845982.9 145941624.3 148895523.2 148710046.5 148704845.3 148107413.5 149837619.3 
151825471.7 148431179.9 153305080.2 149942835.4 148805630 151567769.7 151238990.3 151010980.1 150027864 155596662.3 152647230.6 155152906.2 151220645.1 154410595.1 150554295.6 150590953.3 151447764.8 152572020.5 156408307 147497073.8 153528893.5 152394634 150686522 148117992.3 153057974.1 157293464.9 151967759.1 147474768.7 152016366.5 151235137.9 148886638 147931155.7 151995987.2 147800287.4 148215060.4 150058858.8 147483139.2 157224426.6 152562526 149109992.4 
151040070.2 154022729.6 150966816.7 149128540.3 149822083.3 149340112.2 148880336.5 149073483.6 150945192.5 147079390.5 150780904.2 147940506.7 152690205.9 150536723.5 152648332.1 150570965.6 150056867.7 151465174.6 150650240.8 154465297.5 154695741.1 148439647 151962117.4 148266192.8 150808554.8 149959932.8 153685080.1 153129792.2 151435348.7 150226931.1 154512881.2 146932168.3 150811793.8 149125309.6 151259989.4 149429914.2 154245690 152949950.1 148202046.3 147921770.2 
151187303.5 147553750.8 148391893.9 152488326.6 150175767.9 149390041.9 150710894.6 145065348.1 153035872.2 159392023.1 151128244.5 148343283.3 157220041.8 150671573.9 153715519.7 151752662.4 150719977.6 154426010.5 152438650.7 149245641.2 151230497.6 154402066.5 148819671.2 151523106.6 148612906.2 150173159 158325755 145673166 150669207.7 149317904 147939713.4 154128704.1 155191756.2 147885499 151857175.9 151691360 154011511.5 147913281.2 152199276.5 150105752.9 
154327301.4 150047389 148106919 155401529.3 150468151.5 154108158.1 155181213.9 147193779.8 145465680.4 151171555.5 149264530.8 150665018.6 149701850.2 150338136.8 147082208.5 145537131.7 146324243.6 150459021.8 155926342.5 150104009.7 152740316.2 150493716.3 149289290.6 152047081.4 151259035.5 148117706.7 148802876.5 147588078.2 154660957.5 151406208.6 150492144.4 148572834.1 153956969.6 153454672.5 151195565.1 155364002.5 148624023.9 151921693.5 155616426.4 147711672.2 
# Errors [m2/m2_1574209111.x_y] I_err:
2574296.06 2755432.099 2625149.612 2679041.422 2687929.429 2716950.786 2667493.329 2661918.697 2730833.424 2642682.221 2659570.518 2675890.64 2691524.032 2683764.714 2733503.997 2652338.158 2643700.72 2624303.424 2648429.076 2670829.27 2716037.458 2640499.729 2675243.467 2664563.62 2664464.146 2699012.093 2713375.855 2616699.329 2671324.337 2692614.164 2653023.205 2668446.814 2667255.274 2699725.903 2681193.325 2674630.194 2664933.942 2665140.178 2675604.194 2659809.994 
2668808.05 2618124.729 2694563.078 2642013.169 2666259.185 2710591.465 2597328.711 2740937.689 2655885.773 2712991.406 2624730.632 2677936.651 2714600.099 2684458.076 2704619.638 2675925.7 2728211.045 2658651.064 2668919.321 2666921.72 2696976.517 2681224.511 2717604.205 2688495.423 2700532.459 2720695.33 2643927.773 2634871.127 2737168.383 2686548.674 2675358.35 2696344.994 2647973.169 2677037.093 2699360.369 2610195.124 2653744.903 2707709.87 2694998.291 2672092.366 
2633849.201 2678593.308 2691949.722 2680006.671 2697976.58 2669211.038 2635356.321 2657567.098 2686253.432 2671607.681 2684632.457 2707601.974 2635416.675 2743129.131 2682720.384 2670219.832 2739110.514 2693613.978 2717964.429 2716046.651 2721010.868 2712805.569 2707614.188 2664375.205 2661714.033 2708160.798 2646624.941 2584675.932 2648288.871 2668184.189 2686247.285 2736359.192 2673270.078 2715101.368 2696974.361 2682572.101 2691988.501 2687164.361 2719055.268 2653638.257 
2628764.374 2642363.002 2673608.63 2723528.95 2680996.669 2668531.824 2740129.924 2725800.113 2711743.044 2650869.724 2723102.39 2724283.331 2732750.153 2701083.519 2670566.326 2685722.142 2658012.041 2673018.261 2695767.315 2652521.456 2677939.716 2719379.982 2664911.037 2626372.801 2691150.959 2697714.45 2697115.096 2649510.741 2710786.314 2744482.294 2673225.688 2666185.146 2647664.376 2709204.086 2685448.79 2701114.167 2644314.341 2700489.599 2686460.244 2701594.229 
2673416.94 2696140.139 2644348.111 2685872.614 2682703.845 2664807.297 2712395.118 2675765.898 2698312.048 2690911.129 2657187.667 2648745.792 2684285.278 2753919.804 2710783.967 2759077.087 2704116.09 2691915.616 2714949.591 2638095.247 2710522.194 2686800.158 2666008.989 2685572.178 2673714.704 2665614.512 2785252.805 2695814.087 2724398.608 2592284.535 2705972.267 2704451.747 2681232.868 2677592.299 2651939.226 2647429.113 2701823.31 2696974.91 2726045.38 2705268.398 
2733066.227 2678672.569 2579636.326 2679182.563 2647137.361 2734342.411 2711817.696 2704869.098 2689273.494 2666372.115 2625994.308 2613281.786 2676687.813 2655607.817 2724203.769 2694773.504 2685944.215 2681850.891 2635500.985 2686984.649 2659387.728 2649512.514 2712072.733 2669698.073 2641112.849 2740940.879 2629636.911 2689816.853 2712812.83 2665199.014 2647226.842 2675147.181 2670596.26 2644585.062 2632268.57 2698763.36 2679618.818 2623931.936 2674360.164 2707921.95 
2596435.003 2706715.624 2735976.144 2759175.173 2646414.161 2695561.477 2700278.306 2709931.28 2732639.982 2734356.689 2708127.848 2706915.573 2674951.757 2690430.701 2727137.734 2691647.72 2718108.008 2706556.542 2734014.401 2726197.096 2723293.317 2746870.319 2750906.068 2665221.675 2755271.482 2695100.499 2687737.33 2676618.296 2691758.616 2643169.801 2696421.213 2699835.668 2688736.451 2677054.993 2732115.94 2678143.341 2626917.353 2693169.778 2635963.056 2634661.32 
2663529.678 2705256.005 2665792.182 2605829.256 2639894.063 2651939.218 2733220.881 2666768.356 2691876.231 2742166.004 2673045.376 2766749.845 2688173.295 2770855.389 2717324.16 2690897.455 2722253.605 2683269.216 2692056.63 2682300.963 2739592.122 2634233.808 2751193.226 2700208.157 2703859.952 2669878.851 2636100.698 2696125.413 2712024.293 2696328.173 2739042.439 2709537.261 2694785.393 2662583.938 2708805.883 2684841.218 2698499.114 2580498.795 2725574.086 2645280.324 
2728397.469 2685898.163 2687479.707 2693138.676 2691951.2 2676588.585 2673966.636 2696158.999 2736860.566 2659431.377 2656954.113 2761317.206 2734444.057 2689935.87 2680903.552 2671101.96 2706871.177 2710429.653 2712971.414 2745013.767 2662684.761 2683037.069 2703497.609 2636874.743 2649706.048 2680237.813 2694835.644 2700411.027 2669893.102 2704250.686 2646384.671 2689081.784 2638878.098 2628856.048 2717163.357 2661456.137 2690762.862 2675751.657 2656709.152 2671309.743 
2738273.185 2681038.127 2691563.849 2666754.484 2730311.346 2707578.086 2707553.94 2643255.494 2711476.91 2698286.907 2657050.132 2719680.365 2721831.87 2723537.742 2724452.959 2656823.669 2673675.199 2730373.97 2674003.012 2608277.44 2678064.498 2708254.357 2652687.994 2731955.064 2710056.011 2677121.991 2687281.543 2703392.261 2729187.342 2733806.664 2712465.749 2607747.807 2685648.639 2698042.961 2666934.795 2706392.472 2738615.865 2717537.921 2650455.656 2679296.415 
2675014.896 2674562.045 2747485.743 2686508.868 2713981.444 2712539.073 2682657.54 2656556.861 2687203.185 2667807.174 2678308.784 2686994.278 2663691.057 2658779.987 2733478.325 2690968.783 2678156.578 2726538.84 2731368.993 2709465.927 2667858.801 2678608.641 2687640.167 2724356.479 2679694.351 2669667.284 2690091.22 2693532.541 2718084.304 2643022.71 2709203.81 2711453.975 2658559.107 2675048.013 2704485.36 2686307.894 2712316.398 2703582.157 2623394.983 2596507.765 
2628596.61 2659453.745 2690364.98 2637622.087 2701771.508 2652031.571 2656543.807 2721896.05 2678531.42 2675699.334 2681331.194 2657598.469 2716159.464 2716208.603 2650862.588 2737925.482 2639040.407 2746707.316 2664300.719 2713291.058 2726864.184 2766964.064 2708598.1 2689001.645 2696672.194 2640331.14 2685639.604 2733337.805 2694568.91 2639444.346 2679412.906 2695427.002 2674467.857 2725273.209 2671539.438 2672144.803 2722385.318 2668744.114 2691171.955 2660303.13 
2729809.406 2608849.871 2691898.71 2696425.982 2683287.322 2669175.374 2676088.025 2715150.785 2674069.286 2786877.552 2681245.469 2720092.23 2644067.533 2682206.563 2703961.699 2756155.18 2656271.634 2730059.066 2671257.978 2709006.009 2685805.186 2653569.055 2627349.736 2636080.803 2733693.679 2724344.984 2709341.642 2754229.035 2623630.925 2626318.354 2706988.936 2669271.265 2741250.125 2731749.888 2735830.177 2683962.765 2681946.931 2692645.344 2691353.038 2698117.606 
2713297.613 2724703.27 2709322.222 2646462.704 2649442.2 2634250.76 2656230.77 2693699.033 2606301.755 2717426.062 2678462.042 2680655.266 2734493.674 2662691.238 2718020.379 2691001.867 2682325.245 2715542.91 2724704.237 2671736.938 2694300.883 2680975.888 2743233.27 2750431.134 2723645.948 2667145.704 2754668.716 2745094.889 2690301.951 2722333.148 2711699.036 2670806.654 2661573.773 2714722.041 2734148.141 2693662.045 2711322.357 2740437.973 2680866.139 2711462.318 
2685612.071 2688354.121 2702476.421 2731807.663 2740156.4 2705840.737 2676446.882 2709747.328 2682576.488 2699253.736 2663342.628 2747085.954 2681648.075 2744966.021 2660997.018 2671530.163 2731509.848 2646085.629 2714448.437 2697269.91 2688170.048 2695773.714 2653229.471 2721677.228 2747427.288 2681009.731 2636567.961 2768369.097 2670448.994 2719217.966 2709980.512 2666543.973 2681491.13 2678836.419 2730608.663 2690962.43 2674882.986 2678415.064 2692104.984 2687704.764 
2686216.922 2685267.689 2720202.156 2700868.374 2673435.109 2657966.845 2615755.008 2720548.2 2740317.378 2754338.321 2695938.8 2667818.295 2679696.993 2686644.809 2667893.054 2653931.31 2674478.928 2690415.08 2749295.806 2709391.199 2717146.596 2676016.973 2700169.243 2699877.059 2682546.628 2685981.484 2658088.112 2669748.273 2683548.838 2732925.011 2664446.713 2691450.962 2753560.391 2641841.097 2708420.504 2713275.623 2720268.906 2752306.065 2641202.014 2675181.92 
2720035.371 2663116.614 2663671.862 2699187.771 2699856.991 2661808.292 2668698.442 2648271.527 2713057.23 2687598.421 2665495.491 2747673.004 2718682.634 2698811.45 2761055.776 2680903.393 2712861.722 2727890.922 2714050.478 2676595.039 2723249.775 2659929.014 2710232.268 2683976.351 2695761.437 2692601.398 2667930.788 2709789.883 2751203.136 2695609.232 2672036.718 2666460.843 2648072.715 2715620.545 2654776.965 2684401.572 2691045.449 2749344.444 2662624.475 2610153.482 
2663002.498 2644527.077 2716355.607 2695431.542 2633846.742 2717103.044 2753816.98 2708613.421 2643836.236 2686173.815 2715401.656 2772536.699 2727051.612 2671740.105 2728882.345 2683843.779 2654852.475 2697467.742 2664770.604 2725843.865 2758039.045 2686062.768 2668121.852 2700114.667 2692952.455 2688853.881 2756170.725 2755238.82 2723731.595 2679683.44 2655212.191 2666932.572 2690990.662 2704292.449 2665653.804 2660037.339 2787541.411 2696107.447 2695157.89 2682372.932 
2746129.317 2728919.205 2676700.698 2750677.203 2684706.777 2752422.481 2696299.225 2674096.314 2687837.086 2698265.22 2736171.838 2733066.461 2658619.774 2706890.604 2666215.81 2688437.293 2641429.434 2707140.082 2656738.277 2706694.084 2636447.546 2719740.598 2742894.251 2681316.159 2710398.528 2685363.047 2670435.469 2673649.158 2694737.649 2640516.94 2686100.771 2694926.042 2724020.509 2684435.177 2707346.983 2711698.853 2678359.767 2698036.618 2722233.979 2667667.552 
2721553.149 2629682.887 2700570.261 2640087.139 2734563.899 2630151.168 2713069.606 2672512.38 2700375.347 2723743.437 2651101.157 2705614.533 2662551.186 2706331.138 2657042.393 2681424.145 2629233.564 2721515.059 2715308.018 2706112.216 2748095.38 2749571.4 2666023.936 2681592.065 2664787.103 2735730.945 2743824.264 2659834.642 2763277.009 2667467.779 2644464.363 2706713.039 2674156.361 2725242.227 2737678.142 2661574.191 2715681.225 2686754.032 2683122.052 2662302.503 
2662172.156 2769818.91 2660436.039 2692788.839 2688016.375 2707848.228 2653121.939 2755075.45 2756828.721 2695090.985 2711387.032 2701485.055 2675722.021 2735856.468 2653813.301 2673098.169 2719620.824 2677947.651 2754612.56 2659858.15 2668789.005 2682711.88 2721666.042 2759176.845 2772541.679 2722115.622 2706215.692 2678094.372 2711671.521 2721902.123 2707660.126 2684678.876 2726948.093 2698213.636 2689485.864 2762224.967 2682415.479 2727852.392 2659169.133 2681495.082 
2656750.91 2677649.453 2700223.132 2705502.027 2694231.062 2697772.824 2739681.517 2723369.733 2678234.281 2714909.21 2691167.007 2700827.595 2716326.659 2643221.713 2698667.699 2667617.411 2704506.913 2706327.266 2710309.416 2725359.379 2726206.803 2733065.351 2663191.51 2720787.078 2656593.094 2710494.667 2744590.043 2696169.533 2676203.635 2730359.449 2690303.011 2634744.496 2680163.337 2778650.472 2695624.773 2631445.375 2694116.782 2657753.09 2772272.213 2763527.493 
2638962.553 2660009.881 2701299.408 2761705.928 2708456.874 2729195.298 2696162.063 2674593.389 2618118.967 2722551.174 2668819.223 2699406.541 2723938.446 2640558.772 2709408.746 2650944.722 2635911.607 2673635.76 2717665.258 2723702.241 2725199.173 2694813.55 2695592.281 2673599.862 2621334.278 2736928.441 2718408.992 2652601.424 2678521.262 2702230.398 2664860.358 2620582.14 2694651.969 2656273.237 2718957.907 2718929.69 2628748.203 2775381.337 2700419.935 2701715.977 
2676487.968 2684095.774 2670160.441 2686620.671 2648794.133 2617021.676 2741869.224 2729475.537 2703112.819 2733691.56 2684113.813 2674503.13 2706480.095 2728084.36 2674307.239 2682453.037 2694541.464 2740445.8 2714712.372 2704926.485 2705836.08 2676265.152 2694418.446 2700734.182 2710041.691 2712740.011 2658807.056 2671211.142 2703756.288 2689260.774 2626345.937 2655740.9 2690922.869 2704814.329 2760462.835 2719679.729 2626607.209 2696584.72 2639720.651 2688852.827 
2690341.749 2664476.712 2665694.886 2654693.425 2703020.473 2706223.838 2637387.346 2652923.569 2657471.012 2671080.472 2706129.744 2693071.475 2674898.214 2721972.863 2729975.151 2708341.202 2746208.416 2684350.845 2685316.539 2675146.48 2628884.231 2690715.032 2708908.46 2691529.173 2663778.196 2715834.947 2682328.961 2602126.115 2726083.249 2739890.899 2683398.387 2709768.421 2698346.879 2668265.485 2695185.052 2701664.279 2678245.415 2699978.156 2694900.851 2613383.164 
2702111.856 2713318.222 2702967.361 2693302.942 2717085.933 2711215.893 2646168.773 2719611.468 2733979.815 2667469.012 2731649.799 2741094.412 2709234.615 2726012.035 2710830.198 2715614.843 2647800.611 2726095.777 2772706.471 2744826.393 2715225.34 2689270.9 2708212.079 2664293.096 2642876.036 2711161.624 2690066.757 2663847.342 2711759.157 2668386.475 2699888.902 2656447.656 2693968.997 2661086.48 2643285.231 2717618.827 2676610.212 2715565.182 2715630.598 2709763.071 
2718293.797 2704986.004 2736759.1 2721469.124 2715603.672 2746739.335 2686705.267 2714660.065 2691389.683 2617743.836 2743900.967 2670726.706 2702176.332 2744603.561 2715269.114 2720782.615 2699654.077 2716735.9 2710256.988 2736909.097 2638875.774 2669370.66 2721825.223 2670560.075 2685146.689 2646551.517 2653275.461 2662988.436 2676927.445 2702683.468 2728979.02 2722392.315 2782218.397 2709733.541 2683240.144 2690285.048 2651066.383 2647572.385 2673865.844 2687614.984 
2710209.684 2750381.787 2669964.378 2685380.069 2631552.417 2690390.26 2701363.109 2646411.832 2675554.339 2654461.075 2696898.961 2687054.835 2718978.891 2779778.247 2763416.811 2615565.358 2737222.063 2682430.418 2711065.376 2702114.852 2634452.092 2720666.772 2696270.473 2688002.765 2667271.228 2728464.679 2621483.433 2684789.552 2657924.582 2687445.425 2657431.726 2707445.438 2642118.523 2690373.372 2658730.908 2648983.574 2703288.717 2681398.927 2651171.929 2721385.216 
2705212.766 2747558.234 2651973.758 2689078.104 2690209.994 2740315.246 2651519.675 2692319.248 2767901.884 2641244.698 2692323.556 2687226.263 2639057.45 2717137.62 2656960.362 2648504.08 2717987.789 2672020.295 2693791.637 2690160.207 2649246.152 2736906.741 2706115.471 2668953.55 2697260.38 2672383.15 2735282.901 2682792.026 2741061.048 2633244.404 2713883.069 2744238.525 2692745.56 2678749.879 2685747.864 2728325.769 2677043.792 2736680.041 2742915.031 2648100.071 
2649266.883 2681039.037 2727688.21 2694300.064 2703548.319 2621342.594 2697441.05 2711572.361 2670332.747 2673120.75 2652772.352 2683446.059 2739135.996 2725693.296 2654219.246 2682955.138 2671910.218 2723057.397 2658649.183 2692433.011 2688867.825 2735363.741 2700265.667 2693139.461 2664101.301 2711172.338 2645044.794 2698934.424 2720789.644 2709528.715 2687206.029 2693403.408 2706525.662 2650814.649 2655889.049 2660177.318 2708013.378 2651835.376 2581052.216 2723634.087 
2671380.332 2726387.172 2696310.873 2687225.412 2665059.393 2559618.15 2676427.457 2668424.548 2716687.619 2659208.446 2693231.284 2683495.691 2705946.907 2664241.221 2718526.425 2711908.443 2737959.903 2713252.832 2685480.492 2671084.077 2755863.911 2695885.937 2703511.703 2638697.271 2692316.683 2680199.535 2703901.705 2727929.128 2706761.961 2646955.908 2736986.883 2685289.919 2649821.364 2645098.944 2630380.847 2673952.132 2653778.987 2633333.448 2691551.822 2686972.409 
2656500.013 2682199.725 2733491.352 2671237.705 2657919.098 2638629.008 2762093.942 2715642.178 2696429.37 2688547.301 2718969.338 2716667.217 2670267.525 2653392.295 2669802.294 2684825.983 2652459.633 2651446.102 2722375.431 2727313.152 2688078.204 2707141.434 2696281.14 2746380.297 2717969.275 2705560.173 2708685.168 2656266.479 2674222.361 2728049.731 2737177.172 2703193.891 2740485.648 2651407.576 2723433.608 2687288.728 2686782.922 2701253.734 2673980.928 2737440.958 
2664038.167 2632419.691 2713136.844 2741011.438 2614978.312 2631287.641 2696109.768 2679258.955 2662195.239 2704957.808 2742348.748 2706463.988 2693768.153 2727082.313 2651264.262 2701590.897 2730441.086 2688192.45 2700631.829 2709096.982 2747798.201 2734489.295 2667022.142 2679165.918 2702274.439 2712617.814 2717095.106 2647411.891 2693131.444 2668945.556 2689722.805 2718944.088 2655274.56 2695631.786 2747956.749 2699146.485 2685993.222 2741725.661 2596643.263 2673270.456 
2633505.419 2637854.757 2635417.514 2693962.816 2778965.922 2646523.843 2712739.749 2700307.32 2686002.121 2661239.999 2671388.898 2666262.695 2718305.48 2649679.087 2673427.921 2622028.278 2705780.759 2740601.334 2737602.251 2695970.766 2715782.997 2715717.281 2704650.096 2746971.926 2651198.61 2678267.704 2731125.077 2688118.084 2703580.417 2673803.211 2693755.076 2681189.337 2718416.947 2675640.427 2727340.694 2624515.805 2686592.483 2647979.224 2672890.013 2726018.497 
2608937.442 2696734.368 2715909.575 2710774.317 2706598.478 2693755.069 2644851.457 2722590.151 2662987.828 2678093.535 2735340.828 2680686.175 2694420.6 2683728.838 2674148.969 2626552.844 2725029.038 2694471.139 2726172.788 2711865.89 2682296.802 2703196.134 2725739.882 2663904.574 2777833.094 2622770.352 2683305.392 2639725.594 2707447.213 2698376.673 2727993.651 2677592.755 2730569.207 2663202.252 2638703.929 2750939.081 2652410.657 2725077.662 2718151.891 2684604.711 
2664061.807 2671570.584 2664323.75 2719025.674 2727477.537 2685459.44 2683629.727 2703404.394 2682748.807 2664717.84 2715959.325 2685451.466 2634337.051 2684967.821 2689946.757 2688416.029 2671465.37 2653814.248 2688009.569 2720146.028 2700683.782 2733057.767 2670740.46 2684296.309 2657985.358 2641663.427 2679643.394 2654338.472 2744098.339 2721845.773 2679365.077 2675340.097 2628120.665 2673095.573 2638472.896 2662214.031 2667240.48 2647641.566 2643832.238 2672084.958 
2684125.106 2634058.428 2688093.058 2673742.213 2659830.542 2692176.091 2706046.28 2684940.938 2666135.75 2729954.876 2666738.81 2733270.981 2672126.444 2720827.648 2689790.434 2659342.276 2687029.784 2701595.511 2764612.767 2643386.452 2725827.326 2711236.972 2669557.272 2669100.211 2719797.817 2769412.36 2703963.351 2657631.146 2708806.979 2678394.955 2635119.476 2637712.916 2679528.129 2628879.485 2647171.347 2683194.081 2624454.162 2763252.107 2698738.486 2640552.017 
2670542.153 2710862.414 2674538.12 2659742.921 2675048.9 2651217.111 2664789.089 2643268.639 2677560.206 2646243.847 2674189.824 2655244.188 2715321.013 2682425.127 2699892.96 2686347.802 2659952.081 2682724.668 2656673.745 2706891.994 2734941.066 2656234.462 2712529.508 2652031.019 2698848.119 2673264.776 2723376.265 2695202.68 2683590.973 2682777.57 2732816.17 2614837.681 2683866.976 2652717.54 2692651.728 2672536.87 2690513.526 2703375.214 2659893.845 2630886.454 
2693578.409 2642965.271 2652272.882 2700169.518 2674399.001 2642455.115 2640680.619 2611377.321 2699112.639 2791072.159 2661965.388 2666937.823 2758505.623 2683458.776 2737166.351 2704170.027 2675398.943 2738714.429 2700185.133 2662264.178 2692224.118 2734680.984 2655950.019 2695314.486 2661157.037 2673292.311 2755911.195 2620214.306 2675892.858 2678326.272 2656952.689 2710145.469 2704149.551 2639625.805 2676705.088 2705782.175 2725231.067 2645030.502 2682285.739 2661820.831 
2704472.188 2677355.956 2658763.532 2740191.445 2656628.993 2713262.793 2716181.107 2617976.305 2620527.814 2684063.412 2626130.657 2674016.502 2681855.716 2656605.822 2645630.255 2626457.402 2633703.362 2686544.634 2751503.25 2687923.987 2701098.642 2677144.443 2651964.342 2698458.114 2702722.741 2634604.758 2658300.431 2627686.658 2725041.962 2678940.789 2688254.374 2668952.509 2725685.212 2724293.143 2682132.47 2705137.114 2639599.419 2707277.751 2734209.265 2634593.906 
# Events [m2/m2_1574209111.x_y] N:
6113 6352 6128 6092 6174 6357 6152 6276 6327 6096 6342 6241 6269 6273 6277 6197 6184 6234 6031 6299 6317 5992 6336 6202 6255 6243 6366 6103 6216 6179 6297 6203 6133 6225 6204 6185 6153 6248 6286 6165 
6277 6124 6205 6262 6246 6272 6084 6465 6271 6228 6112 6257 6216 6228 6357 6260 6328 6194 6108 6127 6267 6264 6268 6293 6218 6253 6297 6185 6348 6188 6155 6344 6295 6176 6283 6107 6180 6236 6319 6365 
6288 6445 6197 6231 6326 6154 6142 6184 6251 6272 6277 6228 6228 6340 6153 6224 6314 6294 6268 6360 6273 6367 6228 6131 6231 6274 6130 6289 6268 6211 6268 6364 6236 6263 6178 6175 6438 6196 6253 6147 
6012 6233 6305 6314 6320 6205 6304 6202 6244 6175 6313 6294 6195 6278 6205 6301 6153 6216 6399 6308 6129 6237 6330 6154 6302 6346 6261 6166 6171 6294 6271 6267 6164 6230 6230 6367 6194 6124 6305 6295 
6281 6183 6112 6417 6321 6259 6322 6134 6497 6231 6175 6109 6273 6252 6361 6317 6243 6091 6211 6200 6342 6334 6203 6275 6210 6389 6400 6260 6219 6012 6195 6321 6385 6290 6236 6246 6230 6254 6325 6522 
6351 6298 6248 6121 6087 6380 6265 6274 6165 6264 6259 6159 6251 6279 6268 6272 6283 6267 6242 6383 6241 6095 6238 6173 5978 6385 6191 6290 6302 6279 6204 6330 6193 6149 6198 6213 6086 6145 6259 6264 
6164 6222 6305 6321 6088 6281 6240 6303 6350 6307 6369 6244 6191 6117 6285 6297 6206 6248 6285 6345 6409 6310 6294 6179 6248 6273 6161 6282 6307 6105 6412 6281 6336 6300 6412 6127 6236 6255 6171 6179 
6151 6360 6281 6070 6188 6342 6284 6245 6409 6327 6304 6294 6232 6349 6219 6277 6242 6193 6336 6162 6237 6097 6248 6282 6226 6312 6170 6193 6253 6357 6236 6310 6348 6232 6324 6192 6204 6179 6279 6281 
6390 6319 6311 6257 6255 6296 6190 6254 6302 6195 6172 6300 6337 6159 6117 6182 6218 6268 6257 6239 6207 6279 6262 6176 6175 6331 6274 6239 6179 6371 6197 6157 6222 6187 6324 6222 6272 6273 6231 6235 
6217 6258 6179 6163 6414 6232 6189 6192 6216 6201 6204 6329 6418 6274 6181 6108 6157 6408 6200 6065 6281 6406 6227 6305 6273 6151 6264 6182 6264 6289 6283 6137 6268 6315 6188 6255 6437 6324 6191 6285 
6200 6177 6425 6319 6279 6245 6355 6136 6257 6308 6262 6303 6234 6252 6241 6194 6194 6335 6315 6297 6110 6103 6251 6443 6270 5988 6347 6256 6234 6137 6275 6299 6226 6246 6256 6214 6375 6246 6134 6114 
6291 6257 6324 6205 6302 6226 6197 6307 6353 6293 6185 6319 6372 6132 6199 6263 6182 6254 6195 6421 6303 6246 6459 6223 6223 6244 6262 6322 6303 6201 6240 6105 6359 6282 6225 6297 6368 6267 6269 6177 
6228 6194 6248 6233 6189 6169 6214 6219 6232 6251 6219 6135 6178 6241 6156 6315 6236 6284 6237 6322 6293 6303 6080 6057 6258 6289 6286 6273 6328 6156 6348 6375 6362 6332 6296 6378 6209 6187 6373 6266 
6390 6245 6271 6155 6155 6299 6225 6206 6128 6273 6164 6234 6206 6220 6393 6287 6227 6236 6172 6350 6086 6287 6274 6336 6315 6308 6407 6469 6257 6299 6191 6212 6327 6225 6316 6293 6371 6251 6264 6329 
6307 6227 6234 6384 6369 6315 6281 6269 6260 6311 6292 6319 6174 6274 6243 6185 6284 6354 6341 6313 6243 6350 6111 6204 6350 6106 6061 6195 6226 6338 6248 6144 6245 6193 6294 6321 6086 6338 6419 6223 
6259 6192 6374 6209 6220 6276 6284 6222 6259 6270 6326 6244 6296 6267 6309 6172 6289 6207 6204 6325 6350 6155 6346 6241 6244 6313 6180 6292 6267 6285 6132 6283 6418 6255 6263 6329 6294 6316 6138 6313 
6370 6104 6279 6287 6228 6136 6275 6302 6248 6308 6137 6222 6234 6233 6165 6219 6249 6280 6275 6233 6381 6287 6235 6261 6325 6192 6172 6128 6314 6208 6317 6332 6310 6259 6078 6298 6239 6387 6172 6241 
6097 6258 6376 6310 6100 6354 6328 6236 6254 6309 6315 6314 6174 6209 6370 6315 6237 6115 6188 6229 6367 6185 6152 6249 6328 6192 6192 6201 6361 6296 6122 6121 6149 6283 6211 6174 6381 6195 6122 6271 
6397 6351 6225 6335 6279 6277 6307 6191 6337 6352 6394 6428 6258 6363 6146 6268 6115 6299 6142 6248 6279 6276 6136 6246 6155 6162 6267 6166 6224 6116 6233 6197 6219 6234 6140 6162 6275 6255 6246 6233 
6320 6257 6354 6259 6362 6246 6321 6206 6196 6301 6212 6321 6246 6241 6048 6078 6186 6230 6423 6276 6217 6426 6215 6102 6080 6331 6311 6228 6373 6220 6220 6359 6184 6177 6268 6112 6236 6169 6231 6326 
6177 6326 6258 6173 6290 6305 6157 6297 6302 6246 6233 6203 6077 6199 6198 6312 6212 6223 6289 6132 6277 6209 6263 6362 6375 6185 6207 6250 6252 6219 6428 6339 6343 6299 6179 6214 6245 6336 6246 6190 
6165 6326 6296 6221 6268 6322 6312 6232 6236 6286 6260 6334 6120 6305 6169 6220 6192 6328 6331 6268 6256 6334 6056 6240 6198 6173 6314 6082 6260 6201 6235 6219 6203 6408 6366 6305 6227 6245 6352 6265 
6247 6184 6314 6238 6349 6307 6332 6319 6125 6207 6202 6315 6371 6186 6314 6055 6244 6232 6290 6292 6257 6240 6252 6267 6277 6318 6291 6171 6251 6325 6108 6204 6330 6114 6234 6291 6074 6422 6332 6191 
6100 6260 6222 6234 6218 6216 6384 6247 6160 6349 6190 6091 6150 6279 6137 6190 6205 6380 6355 6355 6197 6212 6319 6272 6355 6207 6212 6255 6280 6253 6101 6137 6296 6377 6402 6258 6158 6345 6198 6354 
6278 6136 6204 6217 6116 6302 6231 6139 6260 6169 6209 6140 6145 6372 6336 6260 6249 6074 6373 6221 6151 6228 6340 6192 6224 6310 6207 6131 6366 6312 6424 6321 6188 6218 6295 6287 6202 6174 6166 6144 
6279 6219 6252 6162 6255 6217 6221 6259 6343 6120 6351 6295 6288 6367 6133 6253 6151 6376 6280 6450 6353 6281 6252 6240 6373 6215 6199 6272 6325 6248 6226 6140 6181 6236 6092 6325 6372 6252 6186 6335 
6217 6237 6237 6283 6387 6209 6332 6154 6227 6179 6317 6269 6240 6349 6261 6216 6268 6302 6167 6327 6235 6154 6232 6174 6214 6226 6181 6235 6280 6303 6207 6300 6393 6297 6110 6253 6187 6146 6290 6200 
6273 6228 6109 6257 6098 6229 6200 6208 6192 6289 6197 6253 6299 6402 6331 6237 6376 6255 6323 6300 6174 6273 6288 6182 6198 6299 6161 6158 6147 6198 6258 6251 6173 6357 6285 6335 6134 6285 6349 6264 
6183 6355 6264 6277 6264 6286 6221 6221 6248 6240 6171 6214 6129 6212 6171 6149 6294 6225 6255 6202 6243 6331 6317 6282 6241 6049 6287 6179 6316 6166 6199 6382 6280 6246 6321 6291 6060 6380 6208 6279 
6171 6308 6192 6295 6137 6139 6266 6416 6254 6262 6105 6254 6380 6315 6236 6254 6265 6277 6110 6291 6228 6242 6189 6335 6274 6123 6195 6249 6205 6353 6276 6278 6378 6194 6238 6192 6225 6143 6074 6107 
6222 6255 6259 6290 6146 6232 6271 6130 6156 6205 6278 6174 6288 6216 6238 6313 6265 6207 6262 6139 6234 6156 6358 6257 6237 6122 6212 6283 6189 6255 6336 6174 6313 6233 6220 6232 6211 6193 6265 6296 
6094 6297 6386 6382 6249 6203 6384 6227 6145 6294 6293 6291 6186 6162 6257 6270 6417 6251 6189 6260 6381 6389 6294 6385 6401 6303 6161 6208 6163 6317 6372 6198 6188 6188 6341 6314 6241 6334 6121 6199 
6241 6171 6313 6532 6150 6304 6209 6212 6255 6285 6396 6211 6290 6292 6198 6174 6404 6288 6342 6225 6298 6298 6218 6202 6178 6280 6256 6227 6268 6251 6173 6182 6335 6311 6396 6301 6371 6285 6241 6309 
6263 6239 6179 6298 6434 6236 6275 6238 6280 6216 6174 6298 6210 6217 6157 6149 6298 6246 6281 6132 6253 6282 6314 6387 6124 6106 6241 6159 6225 6234 6242 6233 6232 6427 6319 6249 6263 6164 6257 6259 
6212 6305 6249 6238 6216 6312 6238 6274 6186 6283 6230 6147 6378 6250 6257 6189 6329 6259 6400 6157 6294 6362 6338 6206 6304 6222 6218 6207 6327 6179 6267 6252 6349 6243 6266 6319 6233 6319 6371 6177 
6214 6235 6266 6250 6373 6319 6197 6310 6195 6246 6270 6150 6201 6282 6346 6284 6395 6101 6172 6155 6318 6291 6264 6262 6210 6208 6273 6122 6290 6145 6289 6071 6191 6238 6124 6219 6225 6198 6257 6247 
6376 6310 6378 6213 6258 6252 6178 6175 6203 6340 6297 6323 6316 6298 6237 6225 6260 6250 6321 6213 6263 6319 6271 6190 6187 6375 6266 6174 6237 6269 6214 6211 6252 6319 6142 6189 6237 6331 6311 6204 
6309 6255 6345 6116 6161 6254 6164 6280 6275 6025 6310 6104 6284 6240 6288 6168 6284 6276 6361 6333 6342 6233 6254 6153 6154 6239 6300 6274 6236 6242 6195 6213 6299 6258 6249 6171 6443 6352 6135 6235 
6205 6141 6145 6286 6219 6277 6347 6177 6292 6387 6305 6100 6376 6273 6300 6283 6263 6272 6221 6220 6242 6351 6169 6279 6172 6199 6530 6139 6193 6221 6129 6251 6392 6136 6281 6182 6284 6183 6337 6320 
6315 6162 6212 6302 6260 6295 6414 6219 6126 6316 6294 6297 6206 6264 6101 6105 6138 6198 6310 6210 6310 6241 6238 6324 6180 6145 6180 6230 6352 6315 6282 6123 6281 6307 6294 6356 6257 6252 6420 6184 
