# Format: McCode with text headers
# URL: http://www.mccode.org
# Creator: McStas 2.5 - Nov. 19, 2019
# Instrument: /zhome/89/0/38697/TESTS/2019-11-20/McStas-2.5_CPU_MPICC/Test_Sources/Test_Sources.instr
# Ncount: 1000000
# Trace: no
# Gravitation: no
# Seed: 1574209597
# Directory: 5
# Nodes: 10
# Param: source=5
# Param: Lmin=1
# Param: Lmax=11
# Date: Wed Nov 20 01:18:33 2019 (1574209113)
# type: array_2d(40, 40)
# Source: Test_Sources (/zhome/89/0/38697/TESTS/2019-11-20/McStas-2.5_CPU_MPICC/Test_Sources/Test_Sources.instr)
# component: m3
# position: 0 0 1
# title:  Intensity Divergence Divergence Monitor (Square) per bin
# Ncount: 10000000
# filename: m3_1574209111.hd_vd
# statistics: X0=-0.000184265; dX=1.65943; Y0=0.00218801; dY=1.66021;
# signal: Min=3.48798e+06; Max=1.90576e+08; Mean=1.51343e+08;
# values: 2.42149e+11 1.07577e+08 9.99957e+06
# xvar: Hor.
# yvar: Vert.
# xlabel: Hor. Divergence [deg]
# ylabel: Vert. Divergence [deg]
# zvar: I
# zlabel: Signal per bin
# xylimits: -3.13674 3.13798 -3.1395 3.14192
# variables: I I_err N
# Data [m3/m3_1574209111.hd_vd] I:
3487980.689 11712233.22 18115908.8 24515259.9 26568063.81 25392328.58 27350758.1 27162881.36 26695789.09 27037892.51 27759381.26 27337437.82 25404656.74 26927864.83 26745470.78 28450993.66 27287731.18 25619555.18 24929322.34 25814869.05 27578219.97 26206433.85 26536420.28 26255174.38 27629385.33 27616943.54 26310470.9 26552373.52 27547041.5 27014761.1 28581379.54 27602676.19 26989112.61 26330711.51 28064195.43 26591841.43 26429290.71 17820701.75 12077271.27 4493430.371 
11270214.96 32081873.79 51887193.51 73143850.19 78632307.42 78386260.2 76015053.33 78526414.78 76192932.85 81947822.5 75475249.25 76616761.93 77670066.85 75985850.37 73276600.87 77108987.35 76663423.5 77990854.66 75670082.28 75233118.64 76389072.42 73735326.1 78478149.95 79485160.75 76266934.55 76516149.62 76446168.01 73541407.5 78554255.03 75884253.86 80344111.8 77055526.05 74719905.83 76869065.35 75340670.24 76216075.39 72573792.49 56821127.91 31867614.37 10950051.5 
20467872.66 53980271.67 87862463.86 121154156.4 127546489.2 127447349.9 129320030.1 125491117.8 124846767.4 129746078 124477773.1 127502475.8 128135960.9 125297301 126576583.1 127779997.8 129577763.1 123100725.7 126990702.3 128857081.4 125025438.8 125923295.9 130444127.9 125448071.2 126642132.9 122697308.5 127267797.2 122468381.7 122326671.8 128829361.1 125096610.2 129054439.6 128276782.4 125455366.3 123121698.4 124317836.8 119024215.3 91309102.47 55183293.61 19175149.95 
26844384.28 74990125.03 119802558.2 158946162 173738483 170110240.1 169476187.2 174335547.4 170441797.3 172950117.4 175598217.2 169304835.2 178044168.7 177101104.1 177039970 177586826.2 174241040.7 173669165.3 168720915.9 170686645.3 169851198.1 175644895.4 169288158 173780117.9 171696434.4 177689197.5 172921798.5 169334507.7 173385641.9 168354914.3 172540182.1 172663705.1 170441316.2 171005153.2 172543556.1 175765324.4 162718665.8 118266506.4 74574686.22 25213601.51 
26457629.4 76879992.69 121952353.8 179244135.6 181467781.6 182408138.2 178903307.6 184107338.2 182782588.7 176029788.4 181258148.9 181386798 178576237.5 186898289.1 184602349.4 184303043.5 182595974.2 175833212.2 181731022.3 180850757.2 184137036.3 182251631.6 184481876.3 183334644.6 181752966 183911540.7 179613394.3 180859439.5 179045098.9 184234954.5 180781256.4 183002089.7 184144675.8 181029179.3 183027417.2 186565767.6 179152509 131069684.9 78806410.31 28703061.61 
27771304.38 75288283.1 132488990.1 174288736.9 177223794.4 186398136.1 180618050.3 179662167.6 182659985.5 179245818 178927808.6 180935043.7 180052771.1 186111880.2 184145613.8 178212093.3 180624669.9 184204111 175965311.6 181979815.7 182750146.8 185588242 180275597.5 179635566.6 176858656.1 184605838.2 185438770.6 177522665.8 184171950.3 182118125.4 183452875.5 180188132.6 182288222.7 176900564.3 179796087.2 180195596.8 169036486 130336091.2 72429574.46 28863816.4 
26916138.05 76352629.73 126714569.9 171486028.8 183425830.7 181107488.3 185562618.7 187345039.4 184369047.1 180478858.4 188677307.1 178257072.4 184029908.1 185209031.9 181981990.2 177177206.4 186264357.1 184851209.7 177593323.6 183031074.2 186077332.2 182990926.2 181990224.8 180181098.8 177148060.7 180440838 181889749.3 179450465.1 187164897.5 184694916.6 180186432.9 187591989.3 183494327.6 181692843.4 182957747.3 181607328.2 171902076.1 126641737.8 77398165.14 25748238.07 
28287612.56 80389920.39 126829368.3 172765567.9 180791327.1 178624057.3 184354517.8 187501071.2 181001089.2 177589706.5 185950859.1 180030798 182559425.2 187612097.1 182204805.4 186670467.6 185602653.4 182040265.7 189672019.5 176367913 184694736.3 180042321.9 182243222.5 185339519.3 182748128.4 183307133.8 183592340.5 176348891.5 185311678.9 182099792 183778362.1 181306489.1 179032084.6 176062330.3 183990100.7 187248783.3 168480975 127471037.7 77298723.01 26980627.58 
25729566.27 79769106.52 127677049 172803705.6 178109233.1 181687963.9 183362815 185113707.6 181515034 181192625.1 183604320.9 179117481 184808429.2 180307138.2 183958971.2 184411739.9 181084826.1 184424587.6 186865612.4 181792165.5 179120618.2 185982087.9 184519319 182651587.5 176823908.5 180931768.2 186848027.9 178925376.3 181372828.1 179562642.2 182335357 179231586.6 176919322.7 186686135.1 185646960.4 177384948.4 172813097.4 123890115.9 79369461.66 25591855.4 
26020133.42 78038755.82 126707970.9 176003062.5 178852908.6 183917928.4 181616433.1 182154518.2 180700706.5 185741852.2 181066381.5 184513108 181634149.5 181111022 180138056.9 178407825.3 179418224.3 188760230.1 183834598.8 187760822.5 180162257.2 184052107.6 185931580.8 183593288.5 181631639 183209928.4 184001340.6 179107944.1 185512233 184884022.9 187660037.2 179909902.9 183919855.3 182126977.7 182750792.5 186484295.6 172902562.8 126188858.6 76077346.01 27726953.7 
27842059.5 78688204.39 128367355.4 174671331.8 183988571.4 179886091.2 183309690 180208604.8 178529132.9 182926314.8 183482707.8 181355190.5 184121871 184401863.9 184442491.3 183028384.5 181662549.7 180808729 186329625 185043028.7 178135257.8 183789168.9 185762646.3 169622618.7 181855053 182926118 182630690.7 183768318.6 182813585.2 179648494.3 182874835.3 180704661.9 181066731.3 181279724.8 180664117 186007094.8 170281158.9 126942651.4 77243211.96 28928193.49 
26310207.94 79857709.09 132531133.7 171281006.1 184871211.9 181581968.6 185270585.3 186578328.6 180604847.6 175045034.3 183962181.3 184523793.7 182982393.3 177193716.2 183759730.2 180957329 186371533.1 180780483.7 176579431 183860886.5 184942314.7 180624062.2 183871862.1 181199766.2 178998766 179945933.8 186125754 177802397.3 179616760.1 179860736.8 182517659.1 180565187.1 184976620.7 179627626.1 185698251.3 187113983.2 170283057.6 125223982.7 74201634.82 27356044.89 
26370537.17 79137427.34 130788071 175061038.1 178240428.5 181157746.9 185344277.1 182448917 175869010.4 186904742.7 182680916.2 178859567.2 184317616.2 187950490.2 182338483.7 181538897.1 183244622.6 180646834.8 183572964.9 184873834.2 181377799.2 185793150.5 183531380.2 182703121.8 182205309 179674504.7 183018801.9 182615086 178873277.2 185041304.4 182184853 185694259.7 178389046.8 186792812.8 187099016.6 184464710 177119617.4 127061643.2 73553370.62 27223520.87 
24270200.45 75849454.37 125089639.5 169850145.8 180592721.5 180858798.4 183195013 177907949.8 184279460.7 176986948.8 181537418 183525206.9 185885864.1 176862840.6 182701969.4 181171227.9 183286556.8 184383542.8 182751179.6 183099519.5 181190939.7 181391111 185630914.4 183091037.2 176189720.3 184646482.4 183497014.2 182102084.7 182809696.1 184896589.4 184751560.1 183099724.8 187626449.2 182939798.2 177878773.2 179877439.9 173715177.9 125215507.4 81761724.9 27295067.72 
27676777.53 79125189.17 130890459.8 169698177.5 185242370.6 181805490.5 183065003 180803261.4 184779676.8 184613622 179361116.8 182011853 179556954 184671541.8 181001780.1 185331750.9 183541855.1 174853438 183156357 181481721.7 182079849.4 179582816.4 186421647.9 179119796.3 189443774.3 186505339.6 182893229.9 186247169.2 182926342.3 176044716.1 186638464.9 183770942 182084651.9 181731574.6 184127449.8 181154706.1 175299484.2 129322790.5 79995231.78 27017484.56 
28490662.35 78715344.92 128011627.1 178414693.5 181352726.9 184741832.5 184985895.1 180157374.6 182974381 185920075.6 181930959.5 178999923 184784723.2 184417298.1 186730950.4 183371177.7 184837586.4 180951507.5 181992408.8 183642062.6 185818788.8 179215967.4 180286255.5 179941004 182124263.7 181855228.5 181353164.2 181902058.5 182244001.3 183671561.3 183441784 179121239.3 179542946.5 182893907.3 185997574.8 179383417.6 177338396.8 126755404.9 77162592.13 27344417.76 
28698192.89 80255734.86 126879199.7 171910171.1 182301721.1 177581504.5 183208909.1 182492007.6 178339405.7 177213164.1 181774354 188476697.1 181854736.4 186421280.5 182742776.6 178853074.2 178248007.7 183478098.7 185440308.3 185044833.5 185982025.9 182785370.3 186917733.7 184082350.4 181172023.5 181977023.2 182679224.5 182307493.7 180540089.1 179567672 181497572.1 179685403.1 178535624.1 180992318.7 182300194.6 186362189.7 175981948.8 126844314.6 77873253.07 25421722.26 
29562544.69 75601584.73 130007033 170142140.6 187315233.7 181342959.1 184969038.7 180930464.3 183333596 185079188.2 184168956.3 178131975.5 186063577 184577256.9 183502183.9 183966193.2 176110238.4 174741700.1 179225645.9 181087491 181799345.5 180754511 183940761 182028343.6 184093346.2 185583262.4 183066039.4 182819677.2 184010105.3 179070638.5 181603898.3 180514959.9 186090570.2 186818781.9 186925797.2 182236681.3 174375708.3 128041226.9 76041207.82 28588370.35 
27506294.32 76717251.41 127375397.4 177062220.1 180603907.8 180452274.1 182497168.8 181374310.9 183697771.6 181017078.4 183254699.7 183218786.7 183621054.5 185560397.9 178624194.3 180593199 178388686.3 180447530.1 179339047.4 183632046.2 188804750.7 186582367.7 175931149.5 177027687.5 181871742.9 186000645.8 178955983 183557826.4 182481875.7 187846001.9 175885469.8 183623701 184811970 181423372.2 183432969.4 178370215.1 173105184.3 127697855.1 75803949.1 26609972.89 
26076252.24 79879771.41 125891868.1 176053994.8 176957572.4 183740719.3 185733854.2 183832399.9 181384643.5 182619227.9 180724171.8 182048082.8 184293543.7 184174478.9 185131483 184448163.7 179187128.2 184420567.9 189289725.3 188239041.2 186583521.1 178318752.3 184626213.6 179931359.4 183230100.7 177311942.3 188847037.1 190524655 184505876 182151498.8 181991013.8 184617963.4 181727647.2 185894333.4 183744724.6 182311949.5 174576498.1 127624064.9 79667467.65 26071276.95 
29507886.35 76504678.18 127960071.8 171859030.3 184724565.8 184105868.9 179210866.1 180338584.6 182947642.4 183320276.5 186111858.3 183647128.6 186307476.2 181259578.4 179087347.4 176681706.6 183198997.8 181948572.5 182240846.9 185847101.1 182964610 180159745.9 180680994.5 185347379.8 186278335.5 174495440.4 180704506.5 183276872.5 182658316.8 180497240.3 182595602.1 185242594.2 180033821.6 181457343.2 183614852.7 181426628.6 171904729.6 131591227.9 77809988.06 26670951.55 
26268595.75 77680834.2 129565266.5 177977474.6 180744233.9 182154639.5 185009760.6 182397707.4 189146270.9 178938960.2 185727374.5 182492581.7 178273445.2 178139141.5 185396383 179261920.5 178448358.1 180695631 180931937.2 181032306.7 178065915.4 182164455.3 189412769 175671877.4 183632847 184111929.3 186181318.9 184835620.8 186283080.5 179359967 181237039.5 186766472 183931556.1 188804418.3 181177972.3 178182298.3 173945966.3 128489736.6 78855473.03 28028357.78 
26642326.23 76124390.81 130355354.3 169690787.8 185098675.1 182788974.8 183090369.4 187219126.7 178888620.5 186479780.3 181821484.4 183166034.1 181339446.2 179939812.1 178483028.5 183469196.6 187241146 182242285.7 181784396.1 185137473.2 180527204.5 188352582.7 184621261.9 183226052.9 182892107.9 182611873.1 180772067.3 182793694.7 179550965.3 181929499.5 177484894.9 184711780.4 185805948.3 176914276.1 182973837.9 184219551.3 172991714.3 127469423.1 80003611.45 27719616.97 
26779435.93 76897324.92 132689877.1 172964737.8 186487292.8 175918106.7 176574880.4 182933083.4 181186371.4 181031310.2 181254163.2 181058104.7 182777359.7 180523215.7 179192796.7 183143808.5 181213824.1 186088682 174725918.1 182768644.5 181315305.6 180161327 179311095.9 182569076.7 182224815.5 182298732.2 179979983.4 180293807.3 176145978.1 187427560.8 179049475.5 173584196.7 180188862.7 180458404.7 183337047.9 181481341.4 179360548.7 122018046.9 74647802.87 28519098.43 
28058193.81 76182144.7 129173048.5 171994960.1 181611605.8 183776050.3 181646280.6 178867404.4 185377555.6 176736569.1 184090110.1 185750126.4 183212280.3 188376968.6 184520894.5 183093879.3 188072311.4 182017518.6 185887522.8 184767700.7 186211142.4 183617894.6 183254486.6 174577647.3 179627171.2 186132821.3 182980316 181419952.2 180996902.7 181006394.3 181544401.2 178358331.1 181947695 182523298.2 183183172.4 184230529.6 168963059.1 126171584.4 80765177.17 25512446.46 
27471731.28 77467412.8 129094896.4 172578656.3 182013859.6 179485488.1 186089666.7 181317556 177326868.4 178997039.5 182918275.5 186003874.8 180833869.8 186568807.3 181272156.1 182332291.1 184041011.4 183203428.6 184802921.7 184504186.3 184392028.3 181035918.6 183813249.7 179897094.3 182301357.8 184952783.6 184707637.6 187375378.5 183907031.6 185294137.6 185613026.1 185301037.3 178096776.6 180091926.8 180151064.7 178801508.8 171701972.6 124085180.7 77482657.03 26792715.32 
26994333.91 79393020.86 129246251.2 181616646.5 185005366.8 184751277.2 181705258.3 183799983 179237098.3 179748632.1 181454288 183114902.2 178231137.8 180888068 183969473.7 184821996 183594622.8 177410694.6 186316542.3 178864659.8 181138621.8 179766464.6 184604849.1 177573850.1 178472073 181556832.3 176693821.8 182768876.4 182260097.1 175073855.3 182306110.1 186095280.2 184292044.3 183547417.3 180037214.1 186469949.1 179740637.3 128500663.5 78602812.51 26158029.29 
26882923.31 77478415.05 128182469.6 175123015.9 188726343.8 185330439.2 183965299.6 182371110.7 183993046.5 182850210.9 182509660.9 176362803.5 185982583.3 184192222.4 183713577.8 183383170.8 183755165.4 184614737.8 183814917.5 181077485.6 182988091.4 183964921.5 181637781 181881718.6 182976475.9 177087963.6 181060391.5 181642345.5 180522050.6 180520103.3 184257297.2 180682978.7 180261261 179513801 182497186.3 178540625.7 177757396 124889700.8 76864136.12 26652657.61 
27277451.29 78162168.33 134098516.7 171325990.1 183156136.3 178726513.8 175913417.3 181028732.7 176227919.8 184740243.8 182086714.3 179474600.2 186016627.9 177544282.9 186700817.4 178324959 184013865.8 182961980.5 182084206.7 180977031.2 185543158.1 177505834.9 181925529.6 180529645 186507057.6 184080114.9 182755273.4 184104468.3 184731000.5 178849117.3 181126412.8 183257086.3 182043224.6 180926688.9 181649475 179817140.2 169561169 125866796.8 75594401.51 28929311.93 
26857988.1 73255374.84 126339306.3 175531977.6 178093474.9 182876574.3 185215608.9 179686291.4 185098722.1 175146885.3 180994745.2 183583359.5 183130796.2 181671433.4 181687172.6 181584103.8 185420437.1 179429860.9 183518563.3 179834858.4 188004621.7 182571044.9 183026364.9 179746157.2 185029817.7 176423937.4 179657405.1 180773709.4 182143341 177664712.8 181279934.7 181788574.3 184660930.4 182091097.3 180208463.2 186696114 171538820.7 129236774.6 77381360.24 27477710.71 
28516729.89 75863382.77 128669970 171754855.3 183592290 180858047.3 179866961.6 187308998 176091371.1 182776064.7 185386149.7 183283901.8 186176457.7 180959698.6 183945961.5 181700724.3 182717623.7 175912225.3 187161871.9 183704822.3 179210880.2 182784224.2 181967583.5 182084313.1 181367436.5 179476477.7 180579262.9 189252604.8 181140167 183444194.7 176816576.1 184624885.7 182094779 178585759.7 178033818.3 181858685.3 178404860.9 127253356.9 77449645.78 27088068.96 
26378310.65 77189857.12 124472308.1 171386532.6 180272525.8 181070581.2 185427501.3 187193713.5 185064444.8 182593338.2 188459679.1 179765681.8 181042331.5 181300952.6 180018534.1 183853247 182828367.4 185900261.1 183181025.5 185895389.2 190576428.4 185726215.5 185565169.8 183291933.1 184738676.3 178897763.5 181310680 177536506.4 182580979.3 184606039.9 179096015 179305262.7 184913396 186311082.6 189559361.5 188700721 178618772.5 128246750.9 73519451.41 24847425.59 
28641680 77141974.91 123730268.6 172749470.3 179892017 185716584.9 182607037 184751558.6 176427073.7 182104170.8 180999386.8 179734044.9 184286512.3 178729509.6 177427530.7 182968360.2 181298001.3 188251385.8 179735995.7 180945352.8 181932366.2 177282032.7 186820681.3 182194544 184862338.9 184036270.1 179925806.7 181430505.7 182266122.3 180680420.5 180865465.6 180041862.8 185468320.7 181092756.4 183571651.3 181863698.4 174696570.7 130570791.2 76841513.4 30435221.66 
27141473.55 73371174.84 130712253.5 170670443.8 183015428.9 184019299.8 184955112.6 184024150.6 181621112.2 186679417.9 184528536.1 185041220.2 182822020.5 180409757.2 185416620.2 183255796 181581457.6 179946458.6 183076208.1 185877790.7 184567817.2 184958393.7 176132169.2 181224951.7 182879493.2 184255008.1 182585388.2 183590919.6 179855704 182345841 181112703.1 177171312.1 183120580.3 184362989.9 178018125.9 174350312.8 170470694.5 128079351.3 73630973.22 27394157.93 
26227120.13 75234162.06 125482991.1 176328071.3 186591493.7 180360430.7 171669505 185911285.9 185569979.6 179053836.3 182101275.4 175512146.1 184289417.8 179485047.7 181854039.5 175748468.8 180076246 181760137.5 182703392.4 185377857.4 182729796.4 184826546.3 182627077.8 182746874.1 181693561.3 181237686 181236209.4 181773452.4 183656621.9 182347309.1 182140645.1 183434454.1 179899136.2 180864946.8 178430132.1 185723833.2 178667576.1 124935833.4 74927163.36 28863612.64 
28802143.45 77001397.89 130427299.4 173606723.7 181140601.2 181211916.3 181905629.2 179491935.5 177654677.7 185447184.9 183508439.1 181568151.7 184598761.4 179466775 180042829.1 188801458.8 182821940.5 186959056.7 183678207 182707937.8 182236075.9 180338561.7 183554038.8 183140409.7 184957287 180638309.8 177699260.2 182511895.1 184516357.4 181327194.6 180211249.9 182542056.3 175813896.2 181188608.1 186236867.8 181318037.7 167702831.9 127773595.7 74717883.56 27104138.22 
26075099.17 75665356.07 124959916.6 164780757.5 171486581.8 169112162.2 173006717.2 175959809 168744076.6 175153557.6 173139258.3 173910045.4 175653108.5 173866737.5 169834785.3 170985370.7 181036300.7 173002051.2 178550597.4 172756584.9 178283705.5 170410002.2 174785613 173691327.5 171752501.4 169925018.2 171690064.5 176599242.8 176898849.8 174951306.5 167381766.9 169704804.5 174392748.4 170424605.6 173987725.1 178057532.9 167320465.9 124036300.4 72428439.18 23517468.42 
19975528.47 52268526.88 89241523.15 124084722.5 131990689 126369663.7 133953408.1 124033655.8 126833433.8 122120512.6 128981690.8 126031071.5 130405431.3 127938094 126880332.8 125871479.3 127345877.2 124954829.8 125670563.6 127966085 128225243.1 124641217.4 130099369.8 126893803.6 125478480.7 127991505.7 123777007.8 127819863.6 124290523.8 126066492.6 130363001.5 133110480.5 127059270.1 126902178.4 127172277.5 123126976.4 120496870.1 91890159.44 57127483.6 19260855.59 
12647047.77 33213979.78 52211642.41 73344852.51 77633787.65 75110852.46 78808451.61 76499815.06 78518710.9 76223549.47 79012782.71 78920730.86 76549382.04 77327436.55 75792699.14 77002863.03 76052961.96 74732390.33 78046459.62 73373789.57 80738524.6 77203984.96 77342363.8 74115056.73 75568629.13 76040416.93 78048322.98 80145810.97 78059309.38 78544487.37 75245754.29 78430280.55 79989425.78 75173714.18 75965521.55 79673411.48 74781620.7 55562868.37 33250133.52 10310382.75 
4364856.833 12767775.63 20012664.58 26099804.78 29274929.93 26650709.49 28982213.46 28379643.8 26125218.61 27096761.1 27480704.21 27216739.76 26921200.7 28721184 26117430.27 27322331.81 26522998.31 28691958.47 27591356.96 26588527.65 30126825.82 27920362.93 28372764.32 26409494.99 28057234.07 28040555.37 26152704.62 28327231.89 27955459.25 27743326.69 28099852.43 27592492.95 29737693.38 27479917.19 27661670.06 27353802.36 25517111.69 19322030.19 11461498.53 4015811.409 
# Errors [m3/m3_1574209111.hd_vd] I_err:
411334.8352 752814.3087 917357.4931 1107283.365 1136773.635 1084851.886 1164655.151 1151577.469 1110382.317 1147806.407 1149992.939 1125908.064 1091612.845 1132356.35 1111507.959 1183548.162 1146117.498 1079230.898 1084254.609 1108500.525 1155884.064 1113524.655 1123919.241 1108251.98 1173084.733 1147215.058 1093306.405 1094914.524 1161955.876 1144133.132 1188929.011 1160394.471 1122262.948 1110836.059 1144878.405 1119757.757 1128127.44 921631.4627 757329.5024 469410.1811 
725510.2299 1223621.175 1546813.885 1861426.162 1916559.513 1927916.614 1892645.246 1952258.709 1903806.234 1995377.073 1881305.459 1917783.504 1912159.179 1903368.942 1849531.654 1925627.032 1913839.924 1958149.245 1896276.173 1876155.555 1917117.527 1871821.094 1921507.155 1954579.882 1910961.079 1896135.905 1923909.931 1850597.828 1947131.397 1903140.873 1993359.863 1917131.552 1879536.252 1943578.965 1892124.272 1902557.627 1858201.529 1662108.831 1209445.143 710754.2683 
992819.4795 1576902.852 2029450.146 2408153.708 2466904.035 2481873.13 2486021.479 2426363.296 2422130.662 2497057.818 2434858.833 2481376.363 2468382.769 2437350.935 2463592.666 2484033.682 2508027.294 2400822.938 2463882.15 2487338.1 2438185.658 2463343.018 2509674.965 2460307.875 2433419.256 2377374.655 2457543.455 2403124.681 2410608.625 2474847.789 2432545.674 2486788.926 2494958.999 2436798.661 2406440.479 2431476.417 2375579.044 2077924.394 1585732.638 945899.554 
1144205.405 1890112.115 2358561.781 2731296.073 2876845.856 2863297.831 2839750.565 2887965.416 2841010.349 2870730.747 2912121.216 2841357.709 2932242.854 2919178.369 2931041.638 2925506.885 2881303.565 2901670.359 2848494.228 2830145.545 2855390.138 2902473.278 2845462.061 2882499.081 2863092.509 2941488.568 2878238.141 2829891.178 2894095.18 2801640.551 2863288.691 2879330.358 2814173.625 2841333.226 2868934.774 2919495.364 2784681.343 2369772.873 1890278.083 1089373.048 
1119249.318 1918274.882 2396852.729 2918282.929 2935186.923 2938852.79 2914556.341 2966839.77 2961513.89 2890127.083 2913444.595 2951150.064 2905404.541 2996792.973 2978452.8 2977625.835 2941124.785 2879338.788 2949105.211 2930806.548 2981766.189 2945951.04 2992918.508 2958710.373 2941404.182 2970280.484 2939346.276 2939585.272 2898972.711 2968190.083 2946039.909 2968127.008 2973313.163 2943284.909 2956357.838 3002851.085 2932751.789 2528843.863 1939639.395 1168197.349 
1165414.954 1869413.517 2521312.716 2851830.734 2879523.481 2984575.368 2905816.34 2922554.858 2950704.874 2943105.221 2935385.296 2908183.514 2942434.832 2993110.473 2966309.798 2889076.837 2913738.625 2971030.91 2880635.602 2943791.745 2954473.642 2975459.959 2928126.912 2932797.504 2891484.404 2980964.896 2973236.664 2924910.545 2972374.916 2961595.231 2964528.394 2920345.878 2964391.725 2916042.059 2912722.621 2932827.395 2831941.579 2488949.883 1830272.213 1180494.613 
1129367.415 1905740.388 2434655.555 2857170.763 2968167.892 2944016.312 2973559.367 3012832.408 2975949.453 2958004.08 3020827.649 2926512.117 2969807.85 2976409.759 2962208.924 2890421.056 3000049.662 2954885.737 2907606.903 2962725.677 2981266.163 2956692.008 2945726.502 2941928.139 2906851.221 2928805.99 2953532.106 2938520.584 3000253.483 2977104.017 2913216.973 2990523.808 2967333.621 2946564.302 2974908.688 2940663.918 2838547.766 2462625.509 1899244.33 1108063.278 
1146015.169 1952610.03 2445180.801 2878310.91 2930031.726 2914445.831 2959875.382 2994291.819 2922634.972 2880182.759 2998786.339 2913689.11 2952533.629 2995257.284 2962362.831 3014666.081 2987812.277 2954123.713 3018450.001 2916352.324 2952618.26 2953543.974 2965352.069 2957941.258 2949078.419 2972350.391 2956665.81 2893858.643 2969483.957 2940053.946 2950049.754 2919234.858 2904234.664 2890611.261 2960793.283 3011869.097 2810765.022 2483835.028 1926460.004 1116244.846 
1091738.451 1957030.74 2469421.435 2859285.709 2902788.311 2951490.719 2962033.713 2985366.997 2926007.605 2937753.829 2976351.551 2894123.877 2968513.989 2946112.968 2976507.766 2991777.677 2948982.219 2977297.836 2994250.675 2957904.498 2932611.791 2983838.184 2985461.433 2942480.83 2898841.322 2956760.391 3003111.885 2897079.165 2942846.885 2919180.407 2939081.385 2891319.493 2874616.125 2993105.405 2954970.609 2889764.079 2850686.877 2417681.668 1972688.665 1070327.456 
1105082.058 1920638.592 2466524.466 2894989.779 2912815.908 2953563.936 2935209.022 2969387.968 2958719.411 2985663.539 2945917.457 2979103.416 2949246.601 2948796.639 2947838.44 2907750.521 2923586.397 3020101.62 2960620.586 3012359.081 2943087.669 2973359.101 2982591.524 2961142.109 2958645.47 2954345.631 2976306.165 2909055.782 2984065.161 2975075.157 3017708.239 2918600.638 2941796.361 2934546.377 2967757.039 2988268.926 2873693.069 2448886.964 1889412.946 1139939.605 
1138004.39 1953470.567 2482339.902 2891600.944 2964856.627 2930266.499 2955316.869 2932311.571 2913523.866 2979884.705 2953397.522 2938589.833 2983906.415 2977899.386 2972803.614 2946747.749 2944823.706 2945307.252 3020522.896 3001985.252 2909250.628 2959463.651 2990312.66 2824346.835 2924711.828 2948518.191 2956858.233 2967282.985 2955923.193 2926449.755 2958221.725 2942699.351 2947107.922 2946261.294 2938760.071 2991272.42 2834474.975 2464027.416 1906404.583 1182753.427 
1099494.084 1958948.142 2517144.012 2836111.927 2976326.163 2931583.149 3001417.679 2984496.522 2931941.982 2904663.913 2954083.068 2966818.582 2954343.979 2884552.824 2971615.102 2929339.66 2989148.367 2924172.11 2901558.14 2977124.854 3000193.021 2913647.408 2961393.384 2935881.176 2932921.102 2939332.478 2994283.177 2896763.005 2921665.14 2920384.769 2962544.52 2928230.879 2981197.373 2922954.436 2990372.721 3025845.229 2823338.735 2431025.521 1858137.405 1121902.282 
1117723.708 1938248.788 2521925.767 2891023.748 2900267.357 2958201.981 2985175.115 2964757.651 2885836.897 3015862.076 2930592.621 2890965.256 3005689.494 3052374.224 2964490.057 2950436.638 2969317.392 2943810.379 2980187.061 2969241.539 2943616.593 2981853.997 2986954.276 2959856.345 2933834.913 2942629.42 2955579.417 2945917.531 2896685.673 3000968.989 2932976.791 2970703.536 2897653.97 2998393.42 3021801.038 2947116.284 2915428.029 2462675.983 1854781.343 1150296.249 
1060055.459 1895066.465 2429810.927 2828682.061 2954153.996 2934196.453 2980313.424 2902079.932 2982929.237 2910405.43 2927160.183 2975561.744 2991568.197 2891052.093 2962587.465 2937628.141 2983830.65 2968691.98 2943581.112 2962524.314 2917462.381 2934805.699 2982813.746 2973568.948 2886691.726 2975814.608 2978037.798 2946113.199 2955361.413 2969942.378 2986803.723 2951492.36 3004193.004 2959241.778 2923380.108 2919558.818 2880756.056 2445631.874 1970201.538 1128095.384 
1133791.446 1941314.49 2532326.773 2845177.21 2979455.687 2938117.578 2948306.119 2933816.976 2977030.543 2984982.417 2928445.232 2931156.628 2921764.949 2991955.233 2933423.14 2976673.211 2992665.892 2870138.562 2952678.67 2933258.887 2947810.714 2934903.022 3017469.45 2923671.035 3034157.102 2995730.241 2938688.953 2985562.768 2967935.659 2871879.855 3001041.255 2947938.129 2955491 2929424.281 2960035.925 2920429.177 2906484.738 2489472.555 1931608.891 1126113.809 
1184771.152 1940927.723 2465909.866 2923348.997 2929413.383 2991355.29 2955891.943 2930753.188 2963160.782 3004222.943 2951186.449 2900147.562 2986017.429 2960291.107 3009668.2 2989279.978 2980978.096 2938261.915 2939501.01 2968936.158 2980472.433 2930363.697 2939961.795 2935625.313 2961974.837 2945438.172 2954272.699 2965293.54 2972339.094 2965436.236 2948946.788 2910926.745 2943848.933 2946901.065 2979995.073 2925793.151 2947599.772 2445351.946 1896119.209 1151150.104 
1168987.706 1979593.631 2442689.021 2865382.335 2975329.865 2905921.546 2955079.985 2948743.208 2882182.72 2899176.845 2928461.415 3034555.71 2942304.652 3000357.666 2965998.197 2916928.593 2907333.255 2974827.599 3013643.05 2972514.801 2989992.195 2960971.896 3006072.47 2962319.401 2956260.938 2938782.332 2969200.354 2942908.074 2949018.604 2931620.074 2925512.378 2938550.176 2892360.618 2924965.48 2976708.408 2986921.056 2910038.136 2470215.004 1917805.031 1090194.492 
1217209.866 1890206.809 2489459.216 2836078.961 2994296.121 2945322.378 2995024.636 2929464.874 2963101.153 2955145.528 2974851.166 2902894.511 3011208.709 2968809.796 2960538.548 2971194.489 2903211.022 2888840.685 2910980.708 2932769.268 2940898.688 2943893.882 2951823.062 2964907.127 2954825.562 3003676.303 2985548.104 2983567.38 2985507.21 2918973.44 2942287.382 2931014.255 2981346.563 3016342.954 3001825.779 2951584.46 2900833.5 2470294.635 1894119.874 1163167.795 
1154384.96 1895735.226 2461232.896 2924389.143 2949215.645 2916619.411 2956434.003 2936385.789 2959943.504 2946141.51 2972765.271 2959062.551 2959906.596 2990687.329 2913686.813 2933459.253 2903807.088 2928077.022 2940056.912 2980193.504 3024542.255 3016886.165 2903513.467 2912409.507 2971322.365 3010198.567 2917903.243 2955692.063 2959035.896 3009302.41 2870909.005 2961761.651 3008744.028 2936487.906 2973145.669 2929251.387 2877634.151 2465349.879 1901148.296 1102812.551 
1114317.039 1947643.896 2437651.474 2895318.894 2882071.141 2961081.951 3003888.231 2976471.49 2926814.816 2998515.991 2934885.4 2951358.79 2964849.109 2977378.906 2999739.514 2979644.824 2928876.773 2979948.411 3020585.89 3023963.518 3011717.047 2922005.099 2991904.171 2939637.693 2953812.269 2899340.509 3025598.926 3057413.184 2991454.995 2954678.103 2942204.812 2988059.078 2924702.898 2989170.89 2984563.093 2966902.143 2885546.95 2480342.674 1956294.596 1119511.475 
1198829.231 1903478.457 2469579.712 2865248.167 2976866.564 2964887.39 2910630.152 2925849.018 2964214.188 2965053.324 2985065.699 3007812.751 2990587.934 2947480.055 2902856.089 2893650.274 2947771.426 2944910.969 2955481.243 3012312.444 2945281.59 2932556.038 2935147.406 2981855.762 2998899.844 2867312.328 2931334.008 2952064.545 2944862.341 2936948.216 2938267.911 2990540.112 2930801.072 2932909.068 2957743.873 2959644.22 2853363.066 2513393.551 1930538.684 1140348.736 
1101080.668 1926893.112 2505958.532 2946223.782 2930529.905 2954880.55 2991904.159 2948775.63 3032251.066 2907754.432 2994209.5 2962357.984 2919094.286 2909917.735 2981711.132 2926221.004 2924362.31 2931346.4 2951499.795 2966174.464 2894132.205 2963699.083 3006493.941 2890936.457 2979954.265 2988388.673 2990075.34 2986366.197 2997191.427 2926732.764 2942826.632 2997609.25 2965339.747 3051051.658 2941998.676 2920775.264 2900272.565 2476249.666 1951995.186 1155817.781 
1124368.357 1887761.832 2507787.216 2848296.118 2983791.233 2963327.008 2958447.304 3025988.036 2910943.622 3003826.805 2940401.104 2961548.359 2962283.759 2945198.177 2915209.899 2969490.699 3013732.422 2948169.258 2952777.444 2980037.805 2938115.767 3034255.695 2973293.83 2958889.37 2960475.342 2985981.294 2951728.821 2941592.947 2929016.484 2942145.271 2911907.277 2981462.655 2987009.613 2899231.185 2959140.897 2972905.291 2872524.218 2451247.606 1970484.516 1171298.531 
1098756.018 1919119.387 2532170.46 2888125.97 3006633.538 2896154.102 2900543.578 2977520.599 2934708.871 2954156.007 2929976.984 2934201.551 2982929.557 2929233.381 2912755.885 2964617.018 2926107.401 2991814.079 2874664.168 2952147.926 2938109.182 2930752.131 2915997.426 2971743.451 2941310.449 2931606.639 2930907.18 2928108.344 2885835.818 3015052.25 2918912.712 2864847.907 2921997.483 2915718.439 2952531.209 2934506.849 2953121.673 2416074.091 1871031.38 1173665.68 
1147005.129 1897071.698 2483253.53 2887401.653 2930973.755 2985475.894 2963909.242 2920605.753 2976865.602 2893015.668 2980304.891 3034982.211 2985825.115 3032909.102 2991370.508 2980363.175 3020790.395 2972922.61 2975030.785 2975751.67 2995886.761 2972335.628 2963738.55 2880865.009 2910870.825 2997297.915 2969754.744 2919847.3 2940515.941 2954028.043 2960953.738 2909362.674 2955818.242 2979630.222 2945121.899 2964727.179 2804215.207 2468271.412 1984423.232 1095737.498 
1158908.791 1920239.3 2491886.156 2867997.692 2950452.681 2924350.872 2999052.887 2941167.315 2928256.685 2931546.597 2949809.279 2993029.384 2957880.552 3000767.12 2943479.719 2952920.06 2963543.028 2971825.71 2980148.739 2965500.147 2980265.569 2933137.604 2988409.392 2939344.411 2963569.819 2964896.791 2980484.74 3001169.412 2949483.104 2995548.017 3002800.456 2969324.517 2926262.591 2918084.267 2939723.949 2922945.92 2850977.322 2426452.18 1913699.425 1127504.052 
1142034.573 1950352.09 2495598.583 2977401.857 2976866.508 2980990.871 2951844.726 2970172.135 2888246.232 2919779.811 2959504.011 2962147.539 2901087.942 2940056.359 2958533.831 2998479.197 2975115.77 2890988.157 2994761.381 2918873.686 2913717.624 2929612.097 2977812.89 2900521.243 2901211.778 2925646.67 2876993.832 2953998.932 2940030.139 2884097.795 2945801.097 2977415.373 2989442.221 2991410.713 2923155.203 3016907.225 2957320.113 2461225.427 1917576.325 1100075.932 
1127103.989 1926485.113 2467494.023 2918484.529 3007461.525 2987497.071 2958615.157 2933114.699 2977341.353 2945978.386 2953231.498 2875564.271 3004154.047 2987402.015 2956928.674 2946997.278 2988617.785 2958763.865 2961707.337 2933865.803 2976889.177 2951722.574 2955008.788 2967453.262 2956443.87 2895039.124 2946043.361 2950418.064 2957846.29 2930856.046 2962125.483 2926405.324 2941109.562 2924316.467 2959568.545 2928191.638 2930745.525 2426159.17 1914532.644 1136728.518 
1153170.51 1931751.495 2541943.744 2834789.67 2966550.355 2908524.689 2866980.975 2921277.301 2891659.547 2964047.545 2954124.097 2920081.575 2994665.362 2893046.35 2999144.111 2923805.095 2978149.485 2942077.193 2935566.179 2957380.022 3002545.134 2879932.024 2991517.063 2930770.375 3017243.757 2971602.802 2962031.308 2977004.152 2990859.731 2913608.895 2954308.706 2945664.834 2934732.217 2946198.374 2931342.714 2902212.943 2829337.292 2446215.192 1903707.908 1193917.824 
1147332.938 1850640.502 2457640.086 2890416.34 2896667.73 2953192.496 2996030.006 2919574.341 2977392.573 2872844.779 2940525.916 2975489.116 2958755.517 2953400.043 2953556.625 2977107.041 2989456.933 2917466.898 2949360.332 2931505.204 3014449.051 2953586.422 2956310.179 2941375.225 2986423.367 2888508.093 2945136.025 2927326.21 2963310.103 2890968.703 2957945.047 2962425.479 2980626.647 2962098.106 2926622.65 2994991.363 2856929.712 2507799.539 1931848.76 1141089.266 
1173156.243 1876546.256 2464288.986 2881155.906 2975394.522 2931997.127 2928258.953 3011444.795 2891718.301 2964752.995 2984265.234 2972022.649 2988430.757 2945615.64 2969708.84 2965241.576 2966103.701 2893706.303 3003645.343 2968218.865 2947075.412 2969845.461 2924168.162 2948352.87 2956109.373 2933683.049 2931624.108 3053241.931 2942247.854 2980383.627 2899463.687 2982570.026 2949250.401 2880060.763 2913607.631 2946223.706 2910978.479 2455267.098 1925232.256 1119226.712 
1133599.673 1886754.302 2409566.963 2855586.798 2922275.378 2935571.125 2969575.784 3015939.293 2985635.617 2940899.514 3040473.24 2941693.52 2925604.364 2923469.525 2923645.817 2955865.355 2948765.931 2987513.346 2962417.224 2970529.164 3044707.588 3004661.405 2988365.916 2976049.77 2964795.425 2921813.065 2966147.409 2913884.659 2961635.56 2991230.187 2930653.972 2938932.245 2957691.091 2978272.531 3024217.729 3022001.066 2929604.031 2479442.725 1848333.812 1096095.49 
1184989.987 1913623.975 2432691.711 2870616.409 2934954.098 2970149.894 2959984.099 2983838.874 2903866.244 2949076.673 2949919.595 2934689.236 2975594.704 2897619.727 2892020.36 2969007.778 2940990.341 3026446.223 2939840.249 2948002.093 2959896.987 2899053.18 2990356.778 2926895.637 3002737.325 2960888.834 2928729.702 2929381.526 2948797.22 2934168.16 2936558.425 2909605.464 2978874.642 2952583.361 2964366.653 2940384.918 2901153.999 2504973.123 1897466.829 1230752.139 
1111454.349 1853594.224 2485985.091 2872499.228 2962781.368 2953440.87 2986981.436 2959014.266 2942910.657 3004238.292 2962290.107 2985269.103 2941417.895 2927223.368 2978106.914 2941025.223 2935063.664 2914593.472 2951856.714 2989566.87 2979590.11 2994911.589 2887945.37 2957278.276 2951118.217 2977687.749 2956088.045 2978870.115 2929907.795 2953931.485 2969472.898 2884039.759 2952295.582 2956638.614 2895522.761 2870248.808 2830690.494 2468991.216 1851977.965 1142996.373 
1098458.1 1871642.271 2432307.384 2911238.198 2989499.707 2937367.589 2822063.877 2995876.931 2970563.898 2910741.834 2961005.06 2870609.145 2975739.843 2918418.416 2948562.425 2872006.792 2922494.609 2961247.102 2924304.41 2982659.121 2948306.215 2974453.127 2952116.42 2950991.108 2955772.28 2962016.247 2938300.048 2955071.102 2951545.331 2952945.313 2930091.396 2948638.2 2921602.411 2953792.298 2917487.897 2982874.524 2906495.305 2430578.104 1885386.043 1178320.584 
1168468.37 1915617.364 2486020.461 2860406.994 2928484.512 2934401.361 2938305.318 2899022.442 2910353.043 2968725.016 2931367.243 2939917.12 2956706.961 2909172.568 2930380.272 2999149.343 2958973.378 3004624.25 2970533.061 2954393.57 2957992.897 2939616.721 2967480.628 2968436.3 2979625.549 2926468.236 2909166.321 2960096.207 2978958.667 2928382.979 2932264.81 2943264.222 2880531.869 2940494.602 2974902.888 2948784.859 2779315.021 2462170.25 1872267.199 1129593.07 
1126638.817 1900033.505 2456597.522 2803582.019 2850860.542 2833967.7 2860924.564 2891065.227 2819697.154 2866190.488 2869005.51 2890025.59 2894932.987 2892348.517 2845535.356 2847283.257 2971291.092 2878733.72 2912869.524 2902542.003 2936833.528 2837819.247 2909834.041 2877048.062 2857859.435 2857056.431 2850198.962 2920853.891 2893618.416 2880727.969 2810058.873 2839829.724 2868146.475 2817197.696 2881846.652 2911371.152 2831381.267 2440870.368 1865350.593 1027770.501 
970370.8434 1575163.584 2061412.475 2428900.368 2527650.662 2433578.115 2548613.916 2432355.543 2458520.643 2387991.664 2490077.959 2453780.364 2473189.101 2456490.375 2482782.402 2461389.167 2471555.849 2450145.788 2433944.396 2476358.41 2491740.727 2444729.556 2489575.205 2471868.073 2443965.444 2496725.326 2424653.424 2477831.61 2433326.949 2425372.706 2495248.816 2533396.731 2482892.216 2439244.281 2474072.282 2395832.626 2392185.178 2094711.137 1640428.431 957153.1127 
785357.0735 1259829.74 1586333.929 1863297.673 1935320.153 1873643.716 1943347.551 1895130.286 1938790.476 1878722.625 1951425.118 1941222.946 1897916.308 1932076.231 1908641.756 1914344.815 1893145.634 1902452.568 1919766.454 1858419.69 1980588.955 1896882.621 1914957.054 1874548.812 1895096.985 1884456.496 1918963.781 1947966.387 1927039.97 1943082.482 1903419.67 1944297.743 1959077.865 1870126.077 1878182.334 1959178.299 1902193.084 1657938.367 1258316.287 676965.939 
430975.7337 772146.0799 992857.09 1100150.679 1186698.939 1104384.895 1172495.743 1162847.768 1106117.043 1119720.099 1123835.013 1139066.856 1106038.726 1142376.155 1102029.163 1166191.435 1130245.402 1168235.904 1156376.56 1120991.581 1188368.921 1154382.951 1167526.863 1097159.125 1175206.104 1142569.035 1086734.942 1179762.762 1163437.488 1143052.473 1131431.172 1164868.303 1193600.724 1131281.244 1124619.495 1158600.66 1091707.389 965074.9821 732311.3326 434060.9889 
# Events [m3/m3_1574209111.hd_vd] N:
149 494 735 1022 1052 1074 1130 1111 1147 1088 1132 1150 1081 1140 1121 1130 1075 1107 1088 1056 1134 1134 1119 1094 1130 1134 1170 1133 1119 1100 1096 1123 1126 1097 1170 1113 1077 756 486 169 
494 1339 2217 2984 3259 3197 3184 3167 3154 3280 3191 3181 3268 3207 3156 3185 3191 3106 3166 3168 3154 3053 3281 3225 3131 3221 3185 3097 3205 3105 3230 3159 3143 3153 3136 3179 3069 2340 1342 483 
855 2319 3645 5029 5246 5222 5302 5273 5257 5287 5224 5246 5328 5253 5268 5211 5207 5226 5216 5320 5149 5184 5256 5195 5320 5218 5264 5130 5087 5326 5237 5257 5261 5233 5195 5176 4935 3757 2318 792 
1071 3047 4987 6701 7106 7064 7046 7228 7159 7163 7226 7060 7230 7221 7148 7260 7173 7061 7108 7282 7018 7214 7040 7208 7123 7210 7231 7090 7139 7071 7149 7133 7159 7116 7161 7074 6758 4960 3042 1030 
1121 3157 5179 7340 7531 7558 7493 7578 7550 7449 7589 7493 7400 7630 7472 7567 7552 7372 7448 7532 7578 7626 7543 7636 7601 7555 7473 7508 7576 7578 7488 7526 7571 7543 7631 7625 7348 5361 3260 1167 
1121 3201 5412 7264 7434 7675 7618 7394 7525 7445 7361 7597 7367 7469 7572 7475 7580 7584 7463 7507 7494 7635 7519 7499 7409 7594 7655 7306 7547 7453 7532 7490 7451 7287 7531 7569 7011 5354 3113 1155 
1158 3207 5310 7164 7555 7524 7547 7625 7568 7425 7660 7409 7541 7533 7473 7426 7597 7743 7443 7503 7609 7483 7430 7465 7364 7478 7546 7393 7611 7547 7562 7718 7579 7535 7493 7442 7177 5316 3276 1089 
1149 3257 5224 7176 7554 7372 7585 7644 7555 7478 7603 7469 7474 7711 7500 7553 7499 7497 7781 7327 7720 7326 7520 7675 7600 7511 7556 7387 7569 7471 7708 7604 7538 7359 7589 7651 7061 5254 3141 1139 
1062 3219 5252 7174 7494 7406 7553 7640 7670 7567 7529 7489 7624 7489 7461 7599 7463 7614 7644 7508 7387 7564 7561 7496 7300 7414 7601 7606 7574 7498 7548 7570 7540 7558 7728 7473 7202 5167 3218 1131 
1106 3239 5268 7241 7475 7599 7530 7362 7377 7704 7540 7569 7432 7475 7394 7450 7385 7612 7523 7699 7361 7547 7597 7478 7472 7553 7533 7454 7512 7624 7638 7515 7664 7602 7455 7664 7152 5214 3190 1149 
1149 3199 5325 7190 7608 7499 7540 7479 7453 7555 7576 7509 7541 7440 7563 7586 7498 7517 7543 7533 7475 7612 7639 7168 7662 7608 7446 7628 7502 7406 7506 7509 7465 7470 7457 7569 7177 5300 3229 1184 
1133 3272 5410 7218 7674 7568 7478 7721 7476 7317 7573 7530 7547 7415 7521 7560 7587 7514 7442 7565 7509 7568 7635 7562 7380 7406 7546 7457 7469 7560 7442 7435 7547 7497 7557 7598 7165 5269 3222 1149 
1143 3285 5369 7227 7390 7425 7629 7536 7404 7558 7576 7616 7409 7477 7502 7372 7522 7397 7415 7597 7498 7620 7519 7532 7627 7435 7492 7562 7442 7550 7630 7622 7478 7572 7674 7607 7305 5260 3147 1098 
1058 3214 5197 7106 7452 7505 7534 7481 7562 7502 7583 7492 7502 7413 7486 7566 7551 7598 7486 7511 7548 7527 7522 7443 7401 7493 7492 7499 7599 7561 7582 7676 7701 7606 7329 7512 7130 5189 3346 1164 
1186 3239 5278 7014 7640 7514 7561 7429 7634 7601 7430 7558 7546 7505 7623 7563 7488 7326 7605 7530 7589 7360 7586 7427 7601 7640 7610 7641 7544 7386 7596 7607 7437 7533 7610 7571 7171 5309 3311 1130 
1152 3234 5337 7245 7542 7546 7649 7436 7580 7538 7566 7518 7589 7591 7538 7433 7567 7546 7566 7528 7605 7482 7468 7468 7488 7543 7495 7507 7382 7648 7621 7422 7424 7539 7635 7503 7216 5342 3231 1111 
1213 3268 5288 7157 7494 7471 7542 7491 7588 7352 7535 7629 7522 7610 7455 7404 7397 7511 7546 7535 7610 7571 7634 7496 7432 7562 7553 7558 7421 7446 7597 7430 7475 7516 7428 7623 7313 5242 3232 1126 
1192 3178 5365 7192 7667 7438 7640 7472 7628 7654 7561 7531 7509 7630 7567 7496 7346 7251 7479 7437 7593 7389 7650 7508 7671 7518 7363 7469 7568 7423 7486 7569 7666 7478 7624 7445 7123 5302 3153 1195 
1136 3236 5335 7251 7496 7592 7513 7484 7580 7540 7508 7517 7581 7549 7452 7422 7457 7553 7431 7527 7689 7507 7320 7378 7406 7489 7377 7557 7588 7580 7388 7569 7354 7385 7561 7302 7201 5296 3149 1170 
1104 3269 5308 7284 7496 7563 7568 7572 7602 7398 7572 7547 7609 7546 7564 7468 7462 7541 7698 7632 7529 7412 7576 7336 7564 7335 7566 7654 7568 7480 7469 7519 7594 7526 7467 7471 7166 5204 3248 1120 
1225 3223 5325 7151 7528 7569 7487 7552 7561 7567 7624 7498 7619 7439 7439 7327 7533 7517 7480 7569 7699 7426 7455 7596 7507 7336 7558 7619 7544 7452 7558 7486 7401 7469 7615 7495 7174 5389 3224 1085 
1128 3181 5222 7181 7475 7547 7575 7600 7611 7485 7572 7517 7281 7451 7539 7461 7248 7485 7460 7383 7504 7483 7769 7333 7447 7447 7611 7558 7596 7391 7468 7565 7609 7565 7569 7380 7100 5323 3281 1145 
1148 3180 5338 7046 7540 7548 7552 7463 7479 7621 7404 7430 7440 7467 7465 7563 7540 7494 7451 7653 7460 7613 7601 7528 7474 7439 7408 7594 7501 7520 7383 7526 7610 7536 7555 7594 7198 5284 3290 1081 
1151 3155 5332 7104 7600 7304 7509 7441 7562 7563 7564 7564 7460 7559 7415 7572 7526 7603 7305 7480 7485 7428 7473 7436 7692 7598 7450 7596 7453 7667 7466 7344 7507 7545 7555 7457 7269 5133 3164 1154 
1204 3168 5320 7119 7595 7497 7452 7523 7597 7406 7545 7384 7440 7605 7544 7560 7613 7482 7619 7526 7602 7488 7550 7330 7491 7562 7529 7529 7446 7487 7432 7486 7547 7432 7571 7591 7124 5192 3218 1130 
1130 3227 5309 7086 7497 7361 7536 7533 7305 7395 7637 7623 7458 7552 7507 7535 7527 7404 7671 7622 7549 7520 7536 7454 7460 7575 7544 7664 7507 7526 7505 7689 7510 7513 7509 7437 7178 5264 3260 1157 
1116 3299 5191 7319 7508 7565 7491 7569 7517 7475 7544 7591 7472 7438 7510 7503 7447 7465 7626 7478 7518 7303 7585 7538 7527 7534 7496 7568 7579 7339 7515 7576 7606 7541 7477 7540 7250 5261 3268 1130 
1114 3189 5379 7189 7629 7588 7540 7532 7506 7630 7451 7496 7474 7513 7678 7649 7538 7637 7616 7529 7447 7591 7482 7397 7551 7411 7432 7354 7472 7479 7500 7519 7427 7448 7441 7380 7238 5271 3131 1116 
1094 3173 5404 7197 7513 7467 7376 7587 7281 7631 7437 7453 7534 7447 7642 7429 7516 7536 7626 7411 7559 7482 7425 7501 7522 7594 7465 7587 7563 7542 7530 7589 7628 7490 7580 7616 7033 5167 3143 1129 
1110 3058 5236 7274 7467 7569 7574 7444 7590 7440 7505 7510 7573 7474 7476 7409 7614 7516 7549 7449 7708 7420 7565 7397 7567 7442 7375 7536 7468 7572 7531 7514 7652 7420 7444 7713 7096 5264 3133 1123 
1191 3178 5335 7126 7534 7601 7521 7563 7404 7437 7549 7526 7614 7509 7586 7403 7496 7400 7572 7579 7405 7556 7518 7534 7396 7444 7515 7616 7511 7598 7420 7609 7595 7531 7449 7503 7313 5264 3200 1145 
1133 3305 5191 7041 7587 7557 7683 7556 7520 7611 7551 7447 7594 7498 7539 7664 7590 7603 7513 7592 7697 7509 7630 7458 7643 7413 7447 7486 7541 7458 7436 7458 7669 7647 7691 7624 7254 5270 3142 1055 
1156 3234 5250 7210 7470 7680 7495 7563 7354 7488 7419 7428 7574 7530 7405 7570 7568 7672 7403 7427 7462 7410 7575 7616 7517 7612 7525 7571 7462 7450 7522 7436 7594 7532 7588 7501 7192 5369 3204 1189 
1156 3099 5488 7119 7444 7591 7504 7623 7554 7526 7620 7603 7600 7502 7742 7684 7527 7450 7550 7636 7532 7610 7454 7413 7613 7604 7561 7529 7433 7467 7460 7557 7608 7674 7549 7351 7129 5344 3167 1138 
1176 3197 5293 7301 7702 7560 7305 7594 7608 7449 7488 7347 7656 7472 7499 7333 7489 7523 7653 7637 7644 7562 7588 7568 7480 7366 7576 7454 7569 7557 7577 7495 7528 7458 7476 7572 7265 5238 3165 1171 
1156 3165 5478 7214 7528 7479 7558 7631 7408 7586 7642 7520 7598 7538 7402 7740 7576 7596 7460 7572 7539 7461 7518 7588 7651 7531 7352 7511 7503 7572 7470 7532 7302 7527 7658 7485 7164 5323 3169 1159 
1050 3116 5089 6768 7149 7124 7214 7303 7100 7252 7157 7137 7238 7033 7116 7135 7342 7097 7232 7103 7206 7197 7097 7131 7115 7037 7264 7186 7324 7232 6980 7040 7241 7226 7207 7282 6899 5069 3007 1044 
823 2216 3693 5123 5319 5260 5386 5077 5266 5111 5234 5234 5415 5341 5186 5267 5241 5113 5237 5293 5286 5211 5336 5259 5203 5238 5163 5250 5113 5247 5388 5394 5216 5246 5240 5198 5089 3821 2331 817 
494 1343 2199 3025 3154 3150 3191 3207 3218 3240 3248 3241 3266 3176 3159 3226 3202 3099 3235 3132 3273 3243 3238 3103 3181 3136 3268 3304 3245 3247 3121 3223 3294 3245 3275 3211 3048 2264 1389 459 
176 509 782 1080 1194 1120 1212 1152 1126 1183 1143 1138 1171 1212 1136 1109 1133 1175 1105 1120 1222 1154 1139 1130 1147 1189 1124 1127 1165 1204 1191 1095 1188 1149 1142 1135 1070 807 467 169 
