# Format: McCode with text headers
# URL: http://www.mccode.org
# Creator: McStas 2.5 - Dec. 12, 2018
# Instrument: Test_Sources.instr
# Ncount: 1000000
# Trace: no
# Gravitation: no
# Seed: 1570824927
# Directory: Test_Sources/5
# Param: source=6
# Param: Lmin=1
# Param: Lmax=11
# Date: Fri Oct 11 20:19:15 2019 (1570817955)
# type: array_2d(40, 40)
# Source: Test_Sources (Test_Sources.instr)
# component: m2
# position: 0 0 1
# title:  Intensity Position Position Monitor (Square) per bin
# Ncount: 1000000
# filename: m2_1570817955.x_y
# statistics: X0=-4.89394e-05; dX=0.0288339; Y0=3.03679e-05; dY=0.028819;
# signal: Min=1.27295e+08; Max=1.90531e+08; Mean=1.51559e+08;
# values: 2.42495e+11 3.40625e+08 999970
# xvar: x 
# yvar: y 
# xlabel: x [m]
# ylabel: y [m]
# zvar: I
# zlabel: Signal per bin
# xylimits: -0.05 0.0499999 -0.0499981 0.0499992
# variables: I I_err N
# Data [m2/m2_1570817955.x_y] I:
157380793.3 151074742.4 166377179.9 155614393.4 149493154 152197005.4 144163789.7 140922344.6 150754500.3 153031931.5 158237822.1 156649945.7 145340371.9 160828714 147104772.8 163195866.7 141431497.7 142422615 145490952.7 143311828.5 156937717.5 158639232.2 154993040.1 151039512.1 164499554.3 151849599 149312280.2 151590526.7 151083606.6 148511201.7 152531603.2 138090388.7 159331942.7 135724113.3 155235475.4 147420959.8 146519240.8 156742295.9 157278122.7 145840486.6 
158929528.9 138356702.5 142906686 141354664.7 152002896.8 148432331.6 137332437.9 143081495.5 156325958.9 151283952 144607775.4 156548752.9 154828980 140307388.4 149134442.6 157078807.4 144666258.9 139048428.3 157378144.9 160931353.5 145270636.5 150178968.7 157297893.6 142423801.6 146323560.7 152432701.4 158636673.2 141610389.4 159150425.5 155071279.1 163920516.5 143048520.1 147880272.6 142477234.7 162340242.7 157901885.9 146939971 155720828.4 134885480.3 157159387.6 
151720505.5 145861975.5 147008712.6 149050660.9 161264512.4 167879159.2 146406180.9 141859737.8 154192547.3 136681368.2 154611464.6 152154564.7 136070586 150309439.3 145927654.6 158120268.7 150647664.9 165654371.4 142802787.5 155347915.8 143437951.1 151366928.3 145122925.8 148033965.3 145107550.3 168836287.7 153766232 161002771.8 151564491.2 153575896.9 150385236 144010669.1 152791439.8 135064976.4 142685326.8 155080042.3 190531472.6 128709069.1 139756947.5 146926350 
157007172.8 155772869.4 166721954.9 150322736.3 144300068.9 156266074.7 149576875.7 152054910.8 127295182.4 139294305.9 155635750.1 158847370.9 138182527.2 146510302.7 146125790.7 152945215.2 160098235.7 146032310.8 155333424.7 152668456.6 149876114.7 180857603 155250338.9 157002087.7 136648344 142964467 139976173.2 153018746.3 146821029.9 155350332.2 165106179.1 147013158.9 162029133.5 159374990.4 144364626.1 142775275.1 147536866 154319291.1 158182674.8 148376944.1 
145018868 145065355.6 133451217 153102142 158813043.6 151533976.9 137814281.5 162945317.8 143461489.4 139225378 136273586.8 158338248.9 156215464.7 148285940.5 145543277.8 152660790.7 140283108.5 153690196.3 176838209.5 153506254.8 162381828.2 153722326.4 140737763.8 143698507.1 147962922.5 156241985.4 148483057.8 162659774.4 140273973.2 147250893 169161193.5 137413870 141479341.7 163418294 138066224 161266204.8 155187350.4 132283134.8 154231596.4 142751723.3 
153198404.1 164874872.8 155124802.2 161714552.3 148786953.4 163776931.4 143188945.1 142130287.6 150263149.6 174991529.6 154323097.4 141858212.5 150085121.9 155186679.2 154202048.6 146913272.6 148440976.1 141321111.1 164160851.5 155122123.7 140039949.2 150943223.3 156604060.2 147996566.4 145173419.6 158358163.6 142729883 133839825.1 161310168.1 138802634 159868659.7 144289183.4 136131089.1 147499955.1 150427369.2 139848423.8 145749357.8 160335228.2 144843664.1 138482201.4 
146352294.5 151641904.2 157396352 152874091.8 158612829.3 133735004 149990706.1 144050095.5 140347872.6 141044603.6 146928472.1 141527446.5 160442626 162341902.1 146536764.5 155873579.8 145120755.9 160542608.9 150134460 163213767.6 148201785.8 146444726.8 161974733.5 147805460.7 160997276 146670687.4 147400701 164014327.3 136426662.5 153300375.7 148877391.1 149459809.8 141167735.4 143076972.2 167864140.3 142859344.5 149289874.3 138556677.6 142053246.1 147610570.7 
156440934.5 141885509.9 137150815.9 153286793.8 143196367.8 152684633 150854117.5 148372138.4 157074873.7 161733087.4 155680937.8 163826854.6 159159221.9 156165637.6 154679884.3 149922574.2 131444424.8 147129197.7 147639745.3 155922561 165024795.2 139301700.9 145664123.7 156564013.4 156538456.3 153592920.3 143163050.9 144344671.9 154432518.9 148602084.9 160945664.1 158608789.3 165476013.4 153252410.9 138232877.6 157473451.4 144239947.5 143750579.5 139279716.7 148696066.5 
149295978.5 158494767.1 152539520 156068684.4 154241980 135913357.6 152880832.1 141658473.6 155676250.9 174903999.9 154544588.2 164879241.5 159866241.7 166391528.8 153790723.9 163158605.6 164314530.4 151209841.9 159623865.1 145971349 139138953.8 142792965.1 138740694.2 150123227.4 138492390.6 155768934.1 139540313.6 161648641.5 156497274.8 161614668.9 146406188.5 159148627.9 152356705 148259614.4 144102329.3 138544927.4 164985164.6 160073194.3 148258537.8 160508675 
135146962.1 154072926.8 146226131.2 148485423.3 148252555.2 147063311.1 143002900.7 152806961.2 153469413.1 145942034.1 146531991 169043407.3 151270352 161135870.2 144141395.9 148554457.4 148323806.6 156500598.8 171368827.9 138312447.5 165755690.7 158111306.2 152630365.6 166891497 150802718.4 152726997.2 150486591.3 151798146.1 156031097.8 151062255.2 143752597.8 154488358.7 134663410.6 158297477.9 158123065.3 148539048.3 172645111 144343141.9 145451980.8 149558968.3 
152634430.8 143563861.6 148849068 149991337.7 160171423.4 145913625.4 138125470.9 136776728.1 151940341.6 152002635.6 159410947 156230399.7 169609102.6 168842054.8 134094697.5 159695954.5 144479757.1 131512906.8 163523033.9 138369712.4 160424209.6 151688198.1 150076626.4 159438275.6 144350730.5 145981675.4 144945799.3 148806429.5 155048247.5 137527936.2 127828356.5 160108773.8 152319438.9 166548535.3 167019458.8 158026371.3 169025544.1 144862919.6 144742794.2 152650378.5 
159651453.6 159111528.8 142541527.7 152103002.8 148847749.2 158096523.5 134493617.5 159396656 156422083.7 138879992.6 159722720.8 152246347.2 148402019.3 154809269.8 146883354.8 147101931.9 158560567.3 146269224.2 143802579.2 160094214.4 138748412.5 158756869.7 144585892.3 153979515.9 152108032.6 154601521.5 139928485 167550818.7 168303090.7 143962585.4 154759854.4 143770789.2 143647967.7 161169813.5 139371329.9 143069880.9 156624835.8 145643784.3 145676216.3 149691329.3 
153036442.2 154512944.4 160010212.6 152520272.7 137972281.8 159266559.1 155580345.2 156378432.8 152904325.6 157778969 153550048.3 140036587.7 162032411.6 157785897.3 149645653.2 147204373.5 146256099.4 143493780 160668550.2 153601416.9 150760395.7 157194886.2 139238489.4 152480828.8 152583354 147394503.6 154173727.3 135442558.5 152033685.7 154178364.9 160403173.1 160752725.2 143334658.9 137660056.3 151565241 140034867.3 147625037 150632287.5 153124636 140354138.1 
148506041.8 146574455.1 164215237.6 154230258.8 143490536.4 175105388.2 160743198.8 161672128.7 152668091 150326201.5 166202037.5 146955677 175157556.2 142309399.5 136694927.6 163080421.4 151533107 153675367 164730738.8 135063971.7 142447456.8 146441231 143826510.5 155167752.9 150431507.7 155106756.5 147067808.7 164003261.4 141807511.5 160183068.1 152147437.7 135771237.2 158336087.6 154982103.9 157404275.8 146966028.6 166961332.4 157035010.1 171176688.6 155485895.8 
140196934.8 154377159.8 167950708.8 162978092.2 153706194.8 162149258.7 161868161.6 152110423.4 155356276.2 150091484 146307113.1 150476484.8 143741575.7 148782139.9 153881833.6 150020420.6 152780218.3 153455224.3 172351111.5 151386072.7 170579356.5 157593248.3 146286961.2 163264531.5 136783545.6 166318564.9 145761478.4 128619783.4 159202857.3 162986492.4 169827024.8 146328140.2 154756887.3 145223740.1 144482212.3 133017189.9 156924030.7 153701417.8 153980945.8 144608771.7 
156126982.3 151781365.2 160798937.7 157002561 158012070.5 146723860.7 166595102.4 139708702.8 155600438.1 146684034 155582434.8 140327905 154428957.1 152591446.9 149002241.9 142419296.1 155618275.7 151602888.5 154803968.7 141643961.4 178492636.1 149735182.4 150815778.6 153025304.6 147026096.5 159859405 159369359.8 154628126.5 153781065.4 151626413.6 161251016.9 136370465.7 144869664 158414595.3 147520846.6 159007314 164007411.1 141921062.5 146334964.1 160865100.8 
162616342.2 152997644.8 159609804.2 136204824.1 168274396.2 142142765.8 149668019.1 149615539.8 136001054.5 145187231.2 154952992.6 168429653 149025441.8 156606540.6 147876264.4 147122701.2 152434141.6 143959987.8 146689366.6 151979071.3 156538727.2 153633729.4 143189731.2 158277189.8 145365567.5 158444035.5 146605158.2 161756694.7 169839251.2 161478954.7 151044507 159357045 144976360.2 160646928.1 138623521.9 144361826 144631423.5 160985467.6 145369353.4 151406252 
164719322.6 146008159.7 133082702.8 153806081.4 133843694.7 152828428.5 159224817.3 152314479.5 153769437 151714839.4 155961481.4 150392792.8 164428007.5 158025271.1 160249439.3 139045485.2 171198426.7 152321995.3 143449777.7 158065085.4 151131354.4 136623289.8 141904270.2 137145905.5 147733975.5 133897162.4 146567178.9 166551385.7 155388412.3 157374908.1 153191106.4 164458803.5 146279407.1 152366903.6 156424991.4 147844923.9 146682825 154032890.6 148257712.6 157902863.8 
150342282.6 138013139 147991536.8 146502239.1 160672092.8 160687635.6 149618095.4 163564913.6 155304795.1 141506746.8 154455778.5 151525716.3 170171808.5 156939187.3 159582469.1 144919897.9 154688405.4 154212840.7 149742306.8 154649728.1 136994455.9 155079947.2 143572131.6 166882450.6 142466623.5 157033750 146865446.1 161032718.6 151530350.4 153001112.7 165804818.3 144345377.3 164187034.9 165086781.9 152800231.4 156380162 142531811.1 143813684.6 167989875.1 147905398.2 
162460707.6 140858190 156232318.2 142203802.2 163395063.1 134373634.2 160063815.6 152985025.1 152207429.9 132781632.4 162388799.7 155840985.4 143111925.9 141092563.4 149959565.9 154645488.3 152555929 131871797 153891631.4 147595594.9 151690516.9 167519344.2 164594060.9 149250809.8 165065510 159930030.8 142508917.8 138021261.3 147393657.2 162768847.3 148967811.1 155746062.7 157135975.9 144523489.6 144151340.8 144152360.6 158484225 152560058.1 153096793.5 138874520.5 
168392664.9 138536975.4 147595818.8 159131843.4 156278855.9 155840911.9 153900059 154529901.3 154855379.9 158930896.5 151406404.9 135777485.9 147059717.8 167607609.8 150396265.4 158480844.2 162757926.9 143514247.7 165151267.9 162036590.7 154394525.2 150541751.3 151127636.6 151751912.9 150773401.8 154772003 140565594 148143178.6 146210301.3 145037758.2 156458708.6 164232111.6 133753611 145877401.5 145553710.1 163852093.2 155530759.1 156145074.2 153376100.8 156417664.1 
144693808.4 169446416.9 153073012.7 141054458.7 161159735.8 144961228.2 155983849.5 138575067.6 139827408 150662530.3 152981498 143921137.5 146870791.2 149299376.1 149399315.3 157070643.4 158485292.3 141870570 149074416.6 143974884.7 145511010.1 148500553.8 141651078.4 169718324.6 163563549.5 147076243.7 145188499.9 150772857.4 157572937.2 140449631.2 147629693 148479508.3 148617197.8 148690764.4 153559308 141841815.8 141037695.3 143797334.8 163415359.3 145265079.7 
145129807.1 148235729.4 172582957.7 155753964.7 159780294.6 154736434.4 148455302.2 138745173.5 154874032 143650626.1 157441253.9 148302102.4 139982236.4 158828366 149597589.7 156986660.4 145249341.4 140477503.3 153582691.8 149712228.7 156365191.9 157321982.7 142098354.6 145740805.2 169169508 166784865.8 172102956.7 168554780.7 153132268.2 133434273.3 165114342.1 152542388.6 156647563.3 139424124.8 140125070.9 160921975.6 151815501.3 156680364.5 163792807.3 154049469 
159372032.8 165143222.7 143668627.2 152412548.3 167080164.6 170468388.4 142133350.1 145902000 164810306.6 142586516.4 145725809.4 167478408.7 154282808.2 152808418.7 162350351.6 152103863.3 155005586.3 148813357.7 142068892.4 147209270 156523818.6 147510740.6 148766701.4 148750409.2 169645202.9 147558947.9 150093832.2 151318240.2 157659082.9 141297756.5 154774454.4 153837080.7 159502550.1 154913571.8 144881233.3 153871788.9 157323369.1 151048687.2 144891906.7 156137648.9 
148939245.9 157845226.1 151728653.8 152036818.2 144323869.3 148054665.8 148648558.6 170828482.8 147728305.9 145367070.4 136224546.8 143813049.1 155732249 143614147 135838069.9 147858823 145089688 155909972.9 159673421.1 161293398 143632882.5 161626930.3 154876795.1 160432429 152709452.1 144194131 157833860.6 162479616.5 154517138.6 151628452.6 154597613.3 155481009.1 162974242.1 146974509.6 160492603.2 141195030.4 147413505.7 136413971 147353873.4 168732270.4 
135698372.5 160387421.3 151862183.7 161765082.2 158108833.5 136703030.9 164138315.6 150035371.1 144059696.3 143207670.3 155028725.1 168411118.6 166697817.9 149571573.6 135290103.9 170240873.8 162222501.3 156247257.1 137121625.3 158230699 145375967.8 152946008.4 155499229.4 150476887 156918268.6 143152511.2 153410413.7 143056003.3 139785229.5 161934767.2 150386791.9 163925954.2 164475243.8 141232673 156879095.3 147931474.9 138672900 152349082.6 132970630.9 141858638.4 
147037050.6 155423915.3 146929968.7 154045578.9 160197976.6 144779154.3 145705571.1 147637042.5 143481015.2 154574763 162890633.2 142911307 146073069.4 150000381.6 162827014 176180849.9 147252279 155039504.2 155236815.9 165100148.8 159422786.4 133043162.1 153500189.6 148808017.5 145054640.9 144905681.1 151751080.6 159984284.8 159542501.4 151157752.8 148804632.2 153018988.5 149161075.3 150504800.2 146107616.2 154093433.5 133475437.8 141549381.8 162931018.4 154711767.2 
141101101 143625101.4 148251715.9 164295025.7 150476113.4 151111070.1 145803338.9 140942066.6 153703247.6 156053528.2 163371590.1 154835568.5 152403184.8 153596888.2 148586516 144189110.7 150578714.3 138668071.8 157509453.1 155284984.6 151193196.9 150297203.6 157533356.2 162377673.8 159901929 161321242.8 154041590.5 159469420.5 148062816.8 145637653.9 169400866.9 152500949.6 143981587.9 156652272.7 163015088.3 147539126.7 140775019.4 151264864 170329751.7 155855165.2 
153533374.5 146527881.6 157475408.8 144795122.9 152618544 143992979.3 154072110 143635241.7 154260919.1 144161880.4 158384315.2 147950543.6 131393543.3 165061847.9 150137502.7 151627224 149816479.3 157292302.9 164569631.8 140839272 163005518.4 153382085.4 142178795.7 147674274.4 143461674.7 153420060.1 141561221 143739028.8 156607900.1 157710052.8 147942621.8 149362901.5 154188610.8 149399160.3 161088967.9 158181822.8 157423907.7 152022106 139677556.4 141699898.9 
150689725.4 147820247.5 149146395.6 162194556.9 144973589.7 164908697.6 139348899.8 162453616 158758034.9 154574821.6 161737265.9 138231752.7 155352232.8 159006165.7 144508599.1 153120329.5 152526182.4 138215087.7 149363260.3 147710033.9 157546691.2 145581972.4 158894006.2 157013608.9 160526204.7 147854086.8 154478046.6 160411999.9 153076593.7 145960857.1 148164740.9 154145428 153277455.4 143809968.6 165405933.6 149497041.5 143965976.5 158243624.9 142908545.7 151007945.5 
151386860.1 157765626.2 155807236.3 169413018.9 157472287.2 146701869.1 140877068.2 149553114.9 151924434.3 144277603 152791296 140220300.7 135327506.7 145399044.1 151339867.7 158661169.8 147070030.3 149307189.1 154533474 136253241.7 149530920.4 149195640.6 143540282 152270922.1 163077208.8 153862318.3 140895431.6 158273958.4 169040170.5 160028455 150479853.1 141681976.4 141562512.3 136348994.5 142725283.7 154536817.6 147245907.7 166815306.1 147090205 145343517 
140774381.3 153594844.4 160308817.3 157624202 156452699.7 155903621.8 147031186.6 166829071.3 146717428 151701521.4 149031594 156174078 161645277.8 147397231.2 166461164.9 148376876.6 155285421.2 146308662.2 148379744.1 149743647.4 152179811.4 175752980.6 156424448 156754710.4 148705711.9 162986511.2 152756179.7 144531428.3 160337868.7 138968046.8 145174449.7 162236473.6 150441126.1 135260954.5 156125554.9 153028295.1 151309099.7 147485905.2 172703157.4 157245803.9 
158785686.1 142515853 164864667.2 148942496.2 151484467.1 157002577.5 149077880.2 142822988.1 151004663.4 152816585.4 150931855.6 154775220.7 166342990.6 149484687.7 145225602.1 143459517.7 144806780.6 159642811.8 153262687.8 150025936.7 162408897.9 180567362.6 140266356 143647374.5 147973361.3 140051615.2 149134123.5 158005357.3 154354725.4 144862953.6 147412663.4 145706047.2 151260320.2 141095971.7 154773078.6 128373974.5 160301199.3 143161163.2 152857579.4 143551129.1 
137100478.1 155262680.5 145007539.6 156271076.3 148750399.8 157579445.9 142824905.8 155604905.1 153348890.7 152468299.9 152855355.4 155721174 139968089.3 169391365.2 152476651.8 172018770.3 146588745.3 141576854.2 139479774.8 141593485.4 174262723.6 155877675.7 148158543.6 150502577.5 161941279.1 148184177.2 144644081.5 142915420.5 152925672.1 158596006.5 160016101.9 155455887 152563764 153628203.7 154865058.3 148406465.6 148830163.6 153694745.7 141113041.8 144594733.7 
135975789 161036285.4 157661718.1 157804695.1 142471938.7 149263178.3 144438369.8 142360155.9 159805738.6 153504638.1 152885477.7 157887603.2 153262636.2 163454632.4 160092157.7 157602343.4 140888070.3 159603464 154137754 159136325.8 143702177.7 168105993.2 138826504.8 144266622.3 141218355.1 148125686.2 154326582.5 166125844 142641756.9 156643777.8 157695559 143944286.2 162191237.4 146560107.2 152793194.5 147634764 145207383.8 153005771.1 150262898.3 151522605.9 
168974780 156046909 154874037.7 150158030.7 157737778.9 154377087.7 150769826 143329038.4 134448453.6 145856045.9 155430368.5 145975899.9 149603245.9 137295110.1 144687796.4 154698596.4 164994939.8 164202857.3 144230501.6 130826833.2 146867937.8 163744318.4 154437517 152929784.3 150351395.1 151997445.4 163453764.1 153628777.5 145767262.9 151612363.8 148754580 161742000.1 159389211.4 169262606.4 147486289.9 142124060.8 148124247.8 153542059.6 133858914.4 147393753.9 
149720209.6 146111013 152859371.9 158929371.2 148315228.9 139744703.5 147399865.8 162143837.9 158142833.3 143745325.6 151117547.7 156193176.1 157856520.6 153587196.8 152351389.1 155029492.2 148098001.3 143839923.8 143628029.3 144440531.8 149455119 138590345.4 152647370.2 161898541.6 137609356.7 151715332.1 154843647.9 133414442.2 141973333.1 143398290.4 154089924.6 144683808.7 144404450.6 156464133.8 144966920.7 152903089.7 142719343 161676928.2 145937290.5 131762078.8 
142119947.3 139705900.1 146176802.2 142565884.9 152295994.4 144902041.8 158551286.9 146702330.4 149055667.3 157252721.2 163738236.2 148179310.9 149987034 141894607.5 149805764.2 156606289.5 142128313.6 160573029.3 147646631.6 144091706.1 152654912.5 139284586 140687760.7 149712904.5 154712449.2 154424790.9 141975993.7 162132877.1 145125635.9 145877087.6 158021670.8 150596715.9 152550496.3 158766159.6 137440354.1 147573558.6 152705371.4 155974849.8 159526633.2 158568681 
165106232.3 165765204.4 147523432.1 136951651.3 154279250.4 146722132.4 136991181.1 157556802.1 144007107.2 168942886.2 147716885.2 144965743.5 149117716.5 154723621.2 144715852 155290809.5 149811476.5 161281569.4 148788520.8 147403642.6 151539258.7 137696613.2 165922228 142191972.9 153164494.4 134081257.2 157941826.6 166268234.5 149177139.6 163112761.5 151604349.3 152906756.5 148347053.1 157346290.2 155593065.3 155999914.3 153495360.2 140958540.4 159944786.9 158076311.2 
141985952.6 155496248.9 146143315.8 162610317.9 162962333 139138349.6 154629923.2 159786655 155089556.3 150153317 145337762.8 154328580.2 157845416.2 158492564 155249174.7 162365722 145857733.3 155211506.2 160477203.8 162259821.5 161114649.9 146252607.6 152350264.6 151320326.8 150784600.3 156613639.8 142131537.2 153871046.4 153573518.3 139796985.8 151882923 140908165 134688647.1 155681255.3 159808472.6 141420183.6 163400129.2 149764239.8 149470266 168054873.7 
# Errors [m2/m2_1570817955.x_y] I_err:
8735404.567 8339518.753 9136532.197 8847292.016 8359201.513 8470533.758 8158064.223 8310689.94 8624854.46 8629780.097 8798303.54 8941441.651 8184882.299 8987920.252 8320685.19 8725599.999 8407528.298 8070011.071 8296017.789 8318501.577 8719753.555 8937964.959 8563864.692 8346060.173 8851749.852 8409268.935 8438481.303 8565216.959 8623921.84 8386272.538 8263683.243 8119286.691 8733175.639 7995079.893 8694581.515 8444604.013 8299052.539 8624463.456 8682367.117 8211952.143 
8710569.638 7753662.033 8258579.982 8173999.049 8516709.837 8585710.705 7961827.121 8237837.207 8667686.703 8512517.102 8280555.732 8926066.615 8655004.466 8106594.991 8338817.789 8676883.443 8218269.706 8102365.197 8796221.496 8764137.102 8067756.997 8470127.606 8851152.835 8073569.818 8235014.812 8539895.495 8701882.865 8267821.486 8643641.038 8751559.188 9047678.12 8265559.742 8487576.842 8188327.097 8920731.034 8592978.994 8161502.807 8596506.854 7888253.831 8454180.753 
8520630.677 8339466.769 8398689.017 8242519.396 9029419.494 9041131.087 8392329.558 8100028.958 8627940.814 8013421.148 8707893.647 8473394.249 7791623.672 8515961.608 8098771.59 8761667.544 8710013.006 8993983.515 7997995.866 8386402.094 8127148.407 8235451.15 8152178.045 8198910.003 8165726.878 9235418.669 8601996.914 9066193.555 8437065.458 8484126.884 8152909.93 8297510.35 8536886.321 7883828.277 8150624.958 8546914.629 9687570.044 7769250.28 8310008.975 8181207.502 
8960484.472 8794600.358 9103362.805 8633486.994 8054536.031 8730547.448 8584737.712 8724066.092 7678403.333 8149390.627 8756788.011 8757254.08 8053232.287 8347565.9 8233410.517 8530318.672 8874014.75 8370898.659 8498207.749 8607378.753 8432151.75 9624626.341 8705910.08 8742609.036 7644075.884 8194147.417 8255177.939 8548449.998 8366107.444 8812610.586 9117586.582 8301283.228 8662525.758 8763401.311 8339171.36 8195237.054 8439327.947 8542789.014 8784810.8 8503861.052 
8195567.786 8270325.142 7909546.675 8541260.926 8690056.82 8379443.814 7921438.771 8732711.739 8102471.076 8054670.898 7843507.873 8795033.624 8537202.679 8308743.517 8411977.161 8522087.131 8018855.769 8595817.497 9422383.803 8704253.745 9016597.295 8357311.526 8143911.065 8092912.329 8419634.831 8774172.014 8475484.732 8860487.899 8065732.8 8407096.217 9136754.649 8076840.153 8284843.765 8910153.932 7781907.757 8890253.117 8745633.043 7529720.821 8412574.025 8157642.71 
8312519.432 8728474.661 8881852.254 8834250.826 8399157.411 8881194.452 8352714.334 8164395.167 8339913.016 9420175.372 8675822.958 8335602.954 8468535.307 8534449.902 8701816.712 8434971.615 8456778.421 8215031.472 8956320.296 8637163.709 8146656.949 8532598.527 8823889.176 8645523.131 8203555.429 8723146.112 8210932.413 8214103.982 8777064.492 7971210.795 8908502.82 8183940.955 7976314.17 8582012.218 8230718.21 7963818.789 8279106.257 8707856.028 8179597.767 7775284.114 
8078324.176 8628446.91 8629828.857 8512555.392 8919198.75 7643313.2 8435468.898 8296234.986 8039859.355 8293453.378 8350626.904 8107214.874 8854409.428 8892636.175 8267905.424 8820490.89 8405847.344 8947014.813 8372322.602 9124328.886 8201372.031 8296477.442 8949945.412 8316962.599 8981621.592 8464911.083 8283972.255 8956402.96 8130882.589 8292456.613 8523286.989 8202646.183 8505737.496 8153482.453 9180115.405 8302221.096 8627965.341 7927759.854 8279624.432 8454134.036 
8672677.947 8087398.314 7815853.373 8612103.538 8307453.557 8559215.177 8410184.548 8412662.93 8797176.674 8946034.254 8547113.452 8754778.373 8827488.856 8682406.054 8400913.292 8343795.749 7630765.358 8437060.138 8480831.881 8512513.447 8948866.947 8046948.95 8417431.331 8759083.417 8825683.829 8421570.207 8138962.514 8391667.613 8359161.472 8531708.267 8881132.021 8546162.364 9134249.361 8832050.202 8033645.413 8895372.14 8209588.933 8252825.271 8112002.189 8425067.184 
8473425.75 8686355.327 8724617.634 8591034.313 8577996.514 7968686.474 8244021.605 8173655.767 8886323.824 9154213.245 8705864.849 9100859.792 8934739.388 9113548.817 8590241.009 8811666.242 8464481.172 8554284.581 8677528.622 8491640.662 8178907.73 8310199.735 8212268.809 8718146.322 8099606.803 8580632.745 8175488.551 8762346.575 8436151.163 9042297.396 8547551.095 8745174.641 8536081.107 8494762.815 8260838.05 7867097.262 8980001.88 8898308.3 8403515.435 8744823.105 
7945371.301 8602577.262 8291509.365 8131596.904 8572269.098 8382093.167 8065021.045 8652982.154 8457291.653 8103483.448 8239965.987 9145571.651 8436449.938 8890277.313 8407694.993 8403563.31 8457448.082 8787245.191 9038467.634 7812398.359 9308589.081 8904831.86 8486122.96 9123957.008 8366988.769 8551343.253 8456514.278 8654710.723 8539851.963 8320026.276 7992917.043 8600893.836 7887819.739 9136549.636 8841621.779 8402281.099 9382501.127 8311388.332 8289609.898 8414431.544 
8428882.579 8265956.057 8253847.35 8571271.17 9058143.41 8257377.819 7850160.484 8200078.8 8524992.824 8382167.971 8713265.848 8758423.688 9070780.891 9169140.367 7612843.452 8726053.525 8081380.89 7978572.354 9050919.565 7894957.54 9186953.711 8700365.22 8317184.431 8895476.056 8204380.356 8254261.755 8287900.58 8386635.107 8607405.683 8097968.318 7562184.194 8630871.486 8377135.135 9142129.066 9246664.299 8694490.563 9219962.53 8355491.44 8200763.65 8390034.313 
8694509.763 8862168.516 8172382.462 8624502.606 8345418.048 8745948.342 7834999.954 8881294.042 8499695.204 7978067.944 8761667.1 8505210.242 8517394.776 8989609.52 8280127.548 8577080.72 8817001.35 8291999.676 8340888.416 9008582.817 7906936.791 8923429.601 8496405.891 8670595.045 8719909.226 8755642.839 8235866.601 9520748.658 8992496.08 8120318.57 8487921.217 8079366.257 8287013.188 8694877.726 8151726.005 8541370.922 8623376.279 8069150.442 8238776.274 8548951.584 
8351651.371 8722009.23 8871329.307 8589913.005 7954544.663 9008459.913 8572996.386 8731112.164 8635398.924 8888352.677 8477840.295 7894595.586 8813972.864 8741052.451 8424595.538 8369209.982 8414260.681 8097193.513 9083298.806 8800595.916 8594957.973 8879167.805 8267941.343 8792269.938 8525245.797 8549133.198 8592057.652 7842540.256 8559656.895 8706138.251 8820064.1 8878111.856 8394907.952 7966924.403 8637193.226 8003824.567 8254513.404 8441977.077 8488071.266 8025114.183 
8327435.76 8345623.997 8903561.582 8479998.667 8161479.974 9436401.636 8833568.439 8884807.174 8425465.783 8723085.39 8897796.833 8374496.041 9367483.926 8325718.87 7985299.167 8901165.104 8315597.626 8761905.177 8957216.331 7791721.867 8126159.418 8060160.971 8234803.522 8606921.78 8434964.683 8507927.434 8463710.741 8934690.298 8000772.455 8608367.661 8589324.838 7918403.863 8755167.041 8585610.801 8763988.933 8314535.129 9141885.688 8840061.816 9162792.508 8668962.663 
8043014.52 8700900.817 9006439.03 8858857.32 8578384.028 8832729.769 8936615.024 8508888.261 8518588.664 8476442.382 8576170.329 8292296.88 8348849.729 8387721.927 8562267.6 8445410.28 8599123.437 8472710.61 9289449.504 8633310.662 9360324.307 8853775.184 8429382.44 9048501.429 8092166.471 9251493.665 8004165.979 7594870.544 8628846.692 8773783.275 9094458.811 8213033.183 8462964.38 8125574.287 8175705.053 7858251.557 8706948.548 8675823.757 8299339.571 8135777.926 
8825577.146 8629891.592 8883088.903 8530429.371 8713610.923 8258295.501 8952727.678 7959589.589 8662982.024 8391905.1 8681345.773 8288732.662 8823095.921 8605062.366 8148480.597 8358095.171 8526754.354 8678332.81 8627026.587 7948496.057 9641684.442 8513085.268 8749076.706 8535983.449 8480114.087 8660945.028 8852545.416 8799082.573 8735608.631 8558678.981 8901285.151 7924662.799 8278979.901 9132653.005 8264853.598 8755888.8 8787409.419 7960805.534 8434095.32 8800554.092 
9036405.682 8684029.337 8750280.293 7932298.998 8944172.879 8186863.734 8323991.676 8460056.964 7883470.527 8293006.92 8722723.964 9092783.666 8295242.077 8819829.752 8435697.487 8207701.394 8633856.926 7913842.32 8444440.721 8479544.234 8717563.855 8516207.508 8212069.687 8777879.545 8417719.555 8711060.853 8293044.611 8723468.795 9323001.987 8900585.174 8573207.385 8886250.096 8318019.864 9081385.418 7991342.217 8220678.164 8008244.395 8894879.479 8362623.827 8332105.937 
9075507.96 8265762.54 7808220.983 8611112.032 7833705.009 8500374.009 8654970.749 8690930.438 8385185.005 8654231.212 8616797.408 8648317.418 8875989.965 8802402.043 8728632.806 8141858.025 9125452.03 8466193.173 8476816.205 8693326.7 8553550.376 7987763.565 8331353.46 7932982.066 8349522.32 7849764.804 8254199.397 9123462.606 8645341.498 8690689.011 8790246.394 8947424.24 8119746.099 8395945.059 8926603.292 8158950.174 8470167.955 8474698.959 8252630.584 8765228.355 
8429067.179 8080051.298 8338610.752 7831283.517 8572379.716 9125174.032 8197733.282 9157763.051 8518995.397 8342047.357 8552095.364 8467533.934 9218275.776 8879108.213 8770296.871 8161220.783 8811965.812 8413547.437 8495633.5 8570374.573 8266332.485 8675548.175 8113287.618 9209532.88 8258903.57 9008962.715 8285820.07 8768173.706 8447564.31 8653980.46 8951215.631 8145189.343 8988100.477 9012327.959 8538438.859 8994322.528 8183917.983 8186925.961 9082490.951 8214341.275 
9098991.586 8142443.005 8840611.647 8352679.639 9223230.841 7837427.413 8922566.977 8561119.07 8535238.289 7711248.827 9154170.13 8690002.852 8073924.227 7942044.651 8440889.616 8656292.223 8596327.005 7695553.277 8547605.382 8542324.086 8634044.974 9105665.73 8963319.962 8619218.609 9038954.587 8678897.377 8194232.338 7960228.247 8444655.013 8778126.277 8528615.492 8532025.5 8859699.612 8336428.096 8392547.076 8126684.124 8761910.202 8687525.373 8347010.945 7935742.237 
9187783.808 7993873.354 8553279.24 9157208.172 8562731.468 8536933.332 8654506.039 8671801.795 8526734.062 8951250.094 8492576.031 7917855.043 8219072.913 9134592.945 8247084.977 8670187.19 8788193.208 8290399.538 8947560.262 8998669.9 8772359.176 8399257.562 8499406.731 8689944.239 8431124.023 8634209.248 7840509.049 8437110.572 8233828.402 8314277.363 8816437.962 8922666.388 7824505.337 8194500.054 8280245.69 8893224.877 8708752.327 8837737.929 8237732.747 8675484.453 
8392518.988 9133734.919 8719406.204 8061042.126 8637255.865 8183535.874 8866464.234 8039932.292 7995527.848 8514787.793 8565311.299 8163962.467 8364792.083 8387483.838 8517413.218 8865096.229 8654189.873 8211021.353 8433602.021 8112109.008 8100177.96 8423119.915 8132301.943 9206514.284 9028683.442 8378470.643 8227860.798 8465207.765 8770146.2 8293485.979 8321702.84 8405973.252 8579278.168 8588730.471 8564588.102 8167642.426 8202547.294 8053428.429 8809117.543 8334695.107 
8318082.59 8309395.264 9467856.924 8583548.836 8851013.154 8635456.514 8583167.239 8094697.397 8644181.423 8086477.54 8819986.519 8476527.953 7997719.896 8868599.079 8397595.828 8674679.464 8157329.996 8171808.754 8650711.969 8272188.351 8573703.222 8810761.328 8103848.858 8333627.079 9224038.891 9102560.83 9179099.789 9393887.691 8645866.029 7953064.755 8784837.709 8541188.629 8665226.911 7975537.434 8239591.201 8744377.465 8606204.05 8591563.276 9066377.127 8839209.306 
8727173.139 9163190.229 8292500.379 8527273.218 9051441.013 9143344.937 7943072.59 8411439.717 9076931.817 8083435.715 8221178.362 9053507.959 8820484.613 8657377.144 8882935.505 8512889.21 8723341.976 8151379.612 8008776.424 8383758.78 8857931.133 8218717.524 8628710.924 8575746.527 9293522.683 8374094.331 8229593.828 8500135.598 8614393.015 8107855.864 8740313.882 8661582.585 8833377.803 8572148.177 8445988.2 8724156.63 8902241.873 8393923.74 8379710.495 8489437.247 
8480319.397 8898199.322 8405983.322 8647500.711 8174585.267 8323327.381 8682648.25 9429817.695 8281321.219 8209078.846 7971599.835 8312158.827 8619206.218 8130963.029 7875504.914 8324547.648 8344837.395 8486869.809 8831262.156 8822165.774 8362209.653 8784702.772 8493649.022 8754268.017 8489269.106 8253316.823 8751177.005 8821092.53 8823334.814 8455416.908 8621392.78 8578979.297 8742834.123 8530701.805 8805685.702 8103138.048 8349815.09 7792782.663 8389670.71 9229009.604 
7835195.336 8779304.514 8436996.347 8917973.136 8757158.219 7866034.223 8676347.545 8627332.879 8356423.297 8082186.442 8556507.027 9146994.435 9024176.432 8258065.055 7795480.726 9308454.079 8845146.652 8548530.052 7854782.813 8570391.53 8419504.024 8475924.23 8753597.347 8384921.268 8877402.813 8140238.054 8575431.526 7982311.579 8181513.327 8901836.131 8392015.025 8932337.697 8872054.871 8163122.711 8703023.522 8637528.645 7760275.091 8449332.968 7912396.202 8098559.631 
8466399.692 8631504.168 8215666.01 8336429.193 8737049.797 8447078.136 8343215.467 8428044.897 8314921.185 8553674.413 9141091.619 8158672.49 8213008.548 8294379.834 8787771.974 9451372.387 8177112.703 8720402.065 8506025.287 9204926.801 8842804.063 8053553.655 8601179.831 8483223.386 8275487.215 8191070.549 8478135.974 8794628.075 8733900.985 8187155.126 8468388.526 8461741.986 8585519.417 8426243.984 8471331.477 8676289.576 7912650.621 8390885.017 8851072.153 8698823.478 
8156038.699 8288534.257 8323488.824 8826527.576 8475815.178 8564073.737 8532582.42 8211336.314 8648815.03 8800020.283 9036357.836 8482774.591 8640234.752 8406203.124 8497025.233 8323713.532 8330410.198 8095116.505 8718611.604 8641331.501 8441026.274 8777186.938 8846359.315 8796496.076 8982305.875 8739828.497 8612943.486 8703557.124 8451000.216 8397039.219 9209027.212 8579576.552 8496947.505 8530869.046 8929445.754 8491112.871 8207618.514 8440357.645 9239721.898 8653345.605 
8612365.749 8132748.962 8728500.608 8408274.561 8725246.29 8120876.11 8600652.323 8084438.109 8817965.284 8249255.211 8978773.803 8311453.71 7777105.37 9208518.519 8635941.185 8575369.442 8279791.975 8768117.467 9098083.609 8229113.04 9101561.786 8695173.891 8307570.594 8339057.732 8265517.4 8517117.293 8296565.096 8144869.746 8733386.726 8525230.522 8493659.067 8334253.558 8461855.223 8205651.902 8860946.932 8763711.014 8523590.785 8515265.976 8002974.212 8108019.678 
8455863.684 8225638.754 8593397.748 9120501.32 8379313.761 8997430.402 8053591.293 8700451.466 8892458.026 8729823.915 8832905.467 7751761.561 8588412.536 8899607.418 8251136.192 8441985.36 8588199.832 8175310.245 8299996.105 8318988.234 8681388.887 8586717.944 8792481.629 8496438.934 8887789.433 8466982.169 8381512.311 8792970.632 8479964.296 8252593.587 8328605.009 8387125.038 8602693.575 8240371.538 9018977.871 8565083.229 7861080.483 8446815.223 8231820.223 8647817.588 
8502054.462 8769105.631 9009215.781 9022287.894 8893139.346 8254957.085 8179027.838 8374165.94 8517460.412 8247242.276 8535970.296 8201307.584 7656437.42 8451497.217 8491099.95 8943126.396 8387171.363 8531315.344 8836728.26 8030856.824 8429715.921 8377391.824 8194972.489 8630781.328 8759159.551 8696091.558 8131372.075 8816520.065 9226196.356 8526401.511 8453130.793 8205177.016 8028603.805 7926870.856 8208979.865 8835960.423 8212708.36 9032295.023 8254066.559 8309903.034 
8265766.411 8783389.965 8710949.127 8874603.58 8780113.544 8724162.374 8290819.987 9276272.663 8220921.183 8594177.319 8545683.29 8686746.963 9059847.992 8337437.127 9209671.319 8370101.735 8598007.462 8375396.812 8575567.131 8499812.659 8378573.359 9519831.743 8633739.501 8702158.338 8381649.813 9000475.987 8756315.871 8364308.305 8870145.433 8291985.372 8213015.259 8860553.515 8269784.871 8157363.341 8533918.328 8385576.103 8612840.509 8304492.965 9319524.586 8787128.683 
8906706.325 8044898.582 9006530.858 8202564.927 8388772.717 8629488.675 8439154.17 8128156.436 8598107.874 8547227.629 8516793.052 8670291.81 8876990.078 8424152.272 8179060.561 8331572.325 8351400.554 8816738.492 8604300.041 8416188.482 8875299.948 9880229.256 8193680.466 8365431.875 8198047.786 8107966.637 8407055.811 8711243.975 8564839.653 8295744.269 8290084.585 8375886.455 8638300.35 7963333.919 8592345.978 7643969.551 8559526.261 8080544.055 8499605.529 8293708.397 
7790217.211 8665553.845 8187577.092 8760939.455 8267109.741 8759722.131 8243004.414 8601403.2 8423265.689 8633305.725 8635608.21 8703448.262 8046295.748 9173215.388 8327264.178 9428617.528 8244570.324 8206692.678 8105745.369 8024992.267 9408035.713 8692070.161 8471468.29 8508647.898 8823020.431 8273522.835 8269005.355 8176635.313 8791405.92 8589218.581 8913824.641 8560628.483 8561299.615 8495813.849 8705854.027 8487944.929 8481467.025 8519709.474 7947223.861 8412449.894 
7728340.633 8685492.423 8694045.981 8946153.586 8307580.121 8174210.836 8191050.693 8274887.662 8800372.085 8607835.571 8625133.417 8730803.672 8450983.234 9001396.693 8926067.476 8707465.041 8014951.764 8799670.268 8614495.564 8780336.918 7899491.154 9135781.636 8034029.245 8264747.034 8209528.5 8411940.612 8635819.093 9013145.122 8191090.352 8776772.447 8620889.596 8056469.429 9116684.786 8462229.996 8319412.746 8270291.887 8152480.599 8471056.078 8271657.767 8492843.828 
9389816.286 8841643.019 8476909.221 8741397.953 8849631.327 8522630.701 8500711.112 8024060.755 8100970.32 8297635.826 8927414.014 8148267.572 8481072.361 7899987.437 8207807.079 8331363.756 9147271.415 8899341.382 8194135.71 7917156.144 8258464.918 9038465.686 8637231.686 8536973.898 8438837.287 8542019.346 8660106.837 8504014.053 8133657.352 8463635.376 8448060.368 8727588.769 8638684.38 9114630.613 8370628.587 7981916.57 8186678.193 8498887.367 7949164.997 8289085.278 
8246256.806 8253429.232 8878263.849 8910370.109 8466303.37 7933115.911 8594155.227 8882398.675 8686545.1 8231212.918 8389814.204 8848295.541 8813991.227 8808104.899 8717682.73 8574540.282 8388163.727 8242296.245 8328200.294 8399302.687 8208826.959 7958205.495 8721215.718 8954590.375 8015633.208 8224785.383 8656889.3 7789704.18 8177719.834 8020658.373 8693977.295 8248736 8232269.604 8688341.805 8224114.2 8290585.063 8165761.022 9054116.904 8184694.093 7741084.784 
8156911.258 8339823.303 8586116.329 8129830.105 8678883.187 8364865.418 8695695.103 8276979.734 8312558.596 8660169.098 8998259.823 8318813.297 8458373.278 8277995.513 8332488.579 8671301.984 8118007.005 8898378.39 8467770.359 8139738.004 8586637.598 7954785.715 8196774.059 8392522.042 8600645.532 8580304.441 8023796.287 8927142.412 8154084.222 8363907.317 8735436.571 8373468.432 8498017.752 8724372.662 7956369.431 8266973.271 8452540.064 8669722.73 8837592.671 8671600.433 
8854378.831 9140484.945 8504389.86 7996765.797 8622166.286 8449797.275 8189330.667 8849006.907 8204442.928 8967768.057 8588422.511 8242669.367 8413694.006 8451928.867 8422803.527 8575309.981 8475583.401 8702847.014 8254772.445 8360861.214 8546996.563 8007931.464 8952973.562 8265739.239 8608163.824 7930547.797 8945000.484 9171228.744 8352566.245 8817517.742 8662040.583 8431276.028 8484608.915 8688838.871 8724924.944 8591706.181 8527588.46 7996918.791 8730748.919 9136275.761 
8165012.901 8538272.796 8246833.338 8973150.895 8780961.125 8075027.195 8694164.165 8919401.088 8584497.207 8584813.304 8263085.014 8396469.916 8745057.133 8640472.194 8704815.181 8883224.883 8343216.568 8680704.878 8903693.625 9057657.982 8832509.569 8191443.4 8451177.252 8740744.336 8607603.368 8737701.779 8207988.023 8585951.506 8712628.732 8262218.676 8542026.404 8198560.628 8023292.131 8757622.46 8936965.001 7898561.016 8728073.355 8503884.272 8400850.946 9165609.085 
# Events [m2/m2_1570817955.x_y] N:
658 618 659 627 616 638 629 597 625 640 646 622 630 611 632 719 580 638 590 583 651 618 630 636 682 616 603 619 634 630 622 600 658 599 618 608 615 643 608 590 
624 622 605 597 617 602 607 594 628 646 610 618 619 581 626 652 611 591 640 675 612 638 631 611 628 622 658 614 647 633 612 593 633 610 667 641 622 666 579 663 
624 618 600 644 605 647 605 623 620 596 602 609 605 615 627 620 595 650 643 673 615 669 644 626 629 653 618 604 642 645 642 618 621 592 607 631 717 570 595 630 
604 595 654 586 623 656 613 626 553 571 619 672 593 617 620 645 646 602 643 621 590 683 629 654 632 606 584 645 597 614 643 599 664 619 610 593 629 641 623 599 
606 589 573 643 650 637 637 640 598 595 603 632 647 640 602 610 596 620 674 611 656 641 593 618 604 617 632 660 613 616 662 601 577 639 620 650 652 604 643 601 
669 686 602 672 612 670 586 609 641 652 635 601 618 638 628 593 613 615 653 626 581 628 633 573 615 637 580 568 665 588 617 584 603 581 629 594 648 669 606 635 
640 588 660 630 633 601 635 625 610 594 627 630 640 642 587 636 593 652 636 616 626 629 644 621 641 615 632 669 574 660 596 639 590 617 653 598 608 628 583 612 
648 594 614 628 610 621 633 624 621 631 668 674 639 638 670 615 607 618 620 637 650 602 609 652 625 631 630 602 646 609 637 646 624 612 630 634 605 637 602 604 
623 660 618 642 649 588 653 585 612 673 632 621 626 662 642 641 678 593 626 624 561 600 590 580 600 642 600 647 650 615 605 648 623 617 627 605 631 637 618 637 
587 652 594 645 605 602 634 614 640 621 647 667 632 669 587 617 605 613 698 603 638 620 652 643 627 628 653 610 628 652 605 632 607 596 628 616 642 615 630 597 
628 594 624 637 630 600 593 563 606 623 638 659 683 678 610 655 627 549 637 591 644 606 645 608 616 627 592 629 617 603 560 641 652 621 652 641 663 567 615 643 
650 647 608 630 625 628 597 655 652 603 665 624 631 601 626 599 629 621 583 618 583 612 560 630 618 622 574 609 650 596 675 628 602 676 581 604 644 634 621 632 
655 608 622 640 577 633 658 635 613 623 631 603 632 619 629 624 610 615 627 645 630 611 576 628 647 606 622 596 636 612 651 624 596 608 625 635 627 615 670 612 
614 614 686 654 644 639 649 638 672 610 653 610 669 587 588 670 638 651 639 597 612 601 603 634 642 656 612 663 615 664 603 590 652 647 628 628 660 642 688 648 
608 637 698 660 636 650 645 637 636 619 592 626 593 621 630 614 616 631 661 624 635 632 607 655 557 638 630 580 663 711 674 633 642 620 618 589 633 613 687 631 
638 590 643 674 625 626 658 588 627 613 625 586 637 621 650 595 642 621 624 630 684 620 609 651 596 663 642 645 614 602 638 589 621 622 607 639 657 626 598 646 
656 612 667 613 670 597 635 627 581 592 594 682 625 647 627 622 607 643 594 604 643 665 594 615 594 637 622 632 639 626 615 615 594 624 591 618 641 617 611 635 
635 609 588 640 589 644 654 628 643 602 633 605 674 641 664 617 655 639 600 633 644 594 597 621 608 607 618 659 656 642 603 674 656 656 629 626 630 637 641 645 
646 588 610 661 651 606 645 635 662 575 646 626 649 624 640 623 637 662 620 639 574 609 603 661 595 634 635 658 646 636 645 615 640 661 640 616 621 606 665 618 
630 617 625 605 633 571 615 626 621 583 614 640 622 618 625 611 616 598 630 585 645 663 663 607 623 666 581 606 618 659 607 627 618 596 588 614 644 645 650 605 
636 605 604 635 636 656 627 627 644 651 624 586 632 667 653 680 645 624 666 621 622 633 623 584 635 621 601 612 628 598 620 619 585 640 605 656 639 630 681 615 
606 666 623 643 671 615 618 606 612 619 628 614 624 618 605 651 650 611 596 637 630 611 595 647 647 611 630 600 626 586 609 624 594 616 622 624 600 634 680 625 
623 650 654 644 622 632 590 596 646 609 597 616 600 639 603 627 601 621 635 667 631 621 605 611 656 673 683 655 618 560 660 627 628 606 579 654 635 640 638 598 
644 640 603 638 642 690 620 592 627 607 618 678 598 618 654 610 620 631 616 613 606 631 600 592 638 597 610 602 659 600 611 625 645 645 599 611 652 654 617 638 
590 629 637 598 641 620 608 624 623 632 606 579 628 635 590 620 626 642 614 637 614 649 649 650 616 610 631 667 615 629 620 678 654 590 663 595 610 575 605 653 
594 676 630 641 633 598 685 589 590 629 635 667 678 613 564 645 636 659 611 637 577 628 621 639 637 608 631 616 594 627 628 643 659 588 627 596 630 665 572 625 
589 670 616 646 657 555 611 606 599 646 634 612 615 657 673 634 633 623 643 645 645 580 595 613 627 606 603 640 654 669 621 640 616 626 611 603 599 577 656 637 
630 617 607 675 608 606 574 589 619 624 642 640 608 632 626 594 629 595 656 625 629 587 616 650 640 658 644 637 625 608 643 632 588 667 635 627 592 622 663 625 
651 647 638 581 621 626 634 611 610 601 611 643 563 613 583 624 660 621 638 589 639 635 599 636 584 649 599 624 608 646 606 623 635 619 635 641 647 626 594 589 
614 646 596 638 592 635 608 661 648 636 643 618 652 635 608 627 616 566 625 631 635 608 646 669 646 598 659 675 652 635 617 660 612 627 670 611 661 690 603 627 
627 638 619 671 622 623 599 615 628 606 630 577 604 621 618 611 628 599 621 577 612 597 611 613 657 641 613 603 671 657 620 592 588 605 624 579 618 667 629 601 
622 616 668 606 648 614 629 635 636 641 632 622 622 618 639 602 632 614 600 626 639 681 645 627 615 651 597 601 634 565 625 665 617 561 613 633 604 596 682 646 
635 601 647 609 642 632 604 604 592 632 622 625 684 607 621 601 595 646 594 643 664 639 583 577 623 586 616 635 634 611 612 586 601 636 659 562 678 609 658 586 
608 651 610 635 628 648 622 626 636 622 618 627 593 639 648 652 620 586 597 585 669 647 600 595 681 595 612 615 598 648 632 649 617 628 616 610 634 617 584 576 
595 648 646 630 591 640 598 589 654 640 597 642 646 634 641 657 600 664 642 664 651 658 575 614 591 597 622 641 600 626 668 602 637 618 635 638 623 620 630 625 
615 633 648 598 635 628 611 646 589 635 610 595 625 589 625 682 632 644 619 583 632 649 669 607 601 615 706 635 610 643 626 668 640 658 638 625 624 628 569 619 
649 647 617 612 604 608 619 638 674 616 634 617 628 616 610 653 618 606 619 599 617 623 621 622 618 657 633 607 599 588 631 611 612 621 628 639 640 634 625 611 
617 587 614 623 602 592 638 636 648 675 649 634 626 600 624 647 615 640 613 627 646 619 626 633 622 617 625 656 608 620 658 651 614 657 615 595 616 642 620 648 
682 646 590 605 627 610 548 616 594 675 607 620 631 639 613 630 622 643 646 609 620 611 694 587 610 567 650 665 641 630 631 638 588 659 638 623 655 612 641 622 
611 625 606 662 683 618 609 630 641 615 621 622 634 633 606 638 605 631 639 621 637 632 650 595 610 663 585 632 583 590 638 605 569 607 650 619 665 623 616 645 
